LabVIEW Measurement	
Writer_Version	2
Reader_Version	2
Separator	Tab
Decimal_Separator	.
Multi_Headings	No
X_Columns	No
Time_Pref	Relative
Operator	Herve
Date	2023/08/01
Time	17:46:46.9164776802062988281
***End_of_Header***	
	
Channels	4				
Samples	3890	3890	3890	3890	
Date	1904/01/01	1904/01/01	1904/01/01	1904/01/01	
Time	09:00:00	09:00:00	09:00:00	09:00:00	
Y_Unit_Label	s	Hz	mV	°	
X_Dimension	Time	Time	Time	Time	
X0	0.0000000000000000E+0	0.0000000000000000E+0	0.0000000000000000E+0	0.0000000000000000E+0	
Delta_X	1.000000	1.000000	1.000000	1.000000	
***End_of_Header***					
X_Value	Time	Res.Frequency	Amplitude	Phase	Comment
	0.050003	1362.972656	11.776000	-4.810000
	0.150009	1362.966709	11.810000	-4.950000
	0.250014	1362.961951	11.798000	-4.940000
	0.350020	1362.959572	11.776000	-4.920000
	0.451026	1362.963141	11.792000	-4.870000
	0.550032	1362.977414	11.784000	-4.780000
	0.650037	1362.986930	11.778000	-4.820000
	0.750043	1363.003583	11.786000	-4.760000
	0.800046	1363.003583	11.786000	-4.760000
	0.950055	1363.005962	11.794000	-4.880000
	1.050060	1363.007151	11.788000	-4.890000
	1.150066	1363.004773	11.808000	-4.920000
	1.250072	1363.007151	11.788000	-4.880000
	1.350077	1363.011909	11.786000	-4.860000
	1.450083	1363.010720	11.810000	-4.910000
	1.550089	1363.019046	11.798000	-4.830000
	1.650095	1363.027373	11.790000	-4.830000
	1.751100	1363.039268	11.788000	-4.800000
	1.850106	1363.039268	11.788000	-4.800000
	1.950112	1363.030942	11.810000	-4.970000
	2.050117	1363.035700	11.792000	-4.860000
	2.150123	1363.023806	11.776000	-5.000000
	2.250129	1363.022616	11.784000	-4.910000
	2.350134	1363.020237	11.788000	-4.920000
	2.450140	1363.011911	11.782000	-4.970000
	2.550146	1363.011911	11.780000	-4.900000
	2.650152	1363.005964	11.766000	-4.950000
	2.756158	1363.009533	11.778000	-4.870000
	2.850163	1363.019048	11.772000	-4.820000
	2.950169	1363.014291	11.780000	-4.940000
	3.051175	1363.019049	11.794000	-4.860000
	3.150180	1363.019049	11.794000	-4.860000
	3.250186	1363.010723	11.788000	-4.970000
	3.350192	1363.010723	11.774000	-4.900000
	3.450197	1363.022618	11.788000	-4.800000
	3.550203	1363.029755	11.774000	-4.840000
	3.653209	1363.030944	11.800000	-4.890000
	3.750215	1363.032134	11.808000	-4.890000
	3.850220	1363.035702	11.794000	-4.870000
	3.950226	1363.030944	11.792000	-4.940000
	4.050232	1363.022618	11.808000	-4.970000
	4.150238	1363.024997	11.784000	-4.880000
	4.250243	1363.034513	11.780000	-4.820000
	4.350249	1363.028566	11.812000	-4.950000
	4.450254	1363.039272	11.788000	-4.810000
	4.550261	1363.033324	11.790000	-4.950000
	4.651266	1363.029756	11.788000	-4.930000
	4.750272	1363.029756	11.788000	-4.930000
	4.850277	1363.030945	11.770000	-4.890000
	4.950283	1363.023809	11.786000	-4.960000
	5.049289	1363.010725	11.774000	-5.010000
	5.149295	1363.015483	11.786000	-4.860000
	5.249300	1363.020241	11.804000	-4.860000
	5.349306	1363.017862	11.792000	-4.920000
	5.449312	1363.017862	11.814000	-4.900000
	5.549317	1363.014294	11.790000	-4.930000
	5.649323	1363.015483	11.788000	-4.890000
	5.749329	1363.007157	11.788000	-4.970000
	5.849335	1363.007157	11.788000	-4.970000
	5.949340	1362.998832	11.774000	-4.970000
	6.049346	1362.979802	11.770000	-5.060000
	6.149352	1362.967908	11.790000	-5.000000
	6.249358	1362.972666	11.770000	-4.860000
	6.349363	1362.965529	11.786000	-4.960000
	6.449369	1362.961961	11.794000	-4.930000
	6.558375	1362.948878	11.802000	-5.010000
	6.649380	1362.941742	11.794000	-4.960000
	6.749386	1362.951258	11.802000	-4.820000
	6.849392	1362.951258	11.802000	-4.820000
	6.949398	1362.956015	11.806000	-4.860000
	7.049403	1362.951258	11.788000	-4.940000
	7.149409	1362.947690	11.780000	-4.930000
	7.249415	1362.958395	11.772000	-4.810000
	7.349421	1362.967910	11.780000	-4.820000
	7.449426	1362.965531	11.764000	-4.920000
	7.550432	1362.975047	11.780000	-4.820000
	7.649437	1362.971479	11.776000	-4.930000
	7.749444	1362.959585	11.786000	-5.000000
	7.849449	1362.959585	11.786000	-5.000000
	7.949455	1362.957206	11.764000	-4.920000
	8.049460	1362.952449	11.784000	-4.940000
	8.149466	1362.942934	11.780000	-4.980000
	8.249472	1362.932230	11.776000	-4.990000
	8.349478	1362.928662	11.780000	-4.930000
	8.454484	1362.933419	11.802000	-4.860000
	8.549489	1362.947693	11.796000	-4.780000
	8.699498	1362.950072	11.804000	-4.880000
	8.799503	1362.958398	11.804000	-4.830000
	8.849506	1362.958398	11.804000	-4.830000
	8.999515	1362.973861	11.794000	-4.770000
	9.099521	1362.986945	11.796000	-4.790000
	9.199526	1362.995271	11.798000	-4.830000
	9.299532	1363.003598	11.802000	-4.830000
	9.399538	1362.996461	11.800000	-4.960000
	9.499544	1363.000030	11.804000	-4.870000
	9.599549	1363.005977	11.790000	-4.850000
	9.699555	1363.003598	11.798000	-4.920000
	9.799561	1362.990515	11.770000	-5.010000
	9.849564	1362.990515	11.770000	-5.010000
	9.999572	1362.982189	11.782000	-4.970000
	10.099578	1362.973863	11.770000	-4.970000
	10.199584	1362.978621	11.782000	-4.860000
	10.299589	1362.976242	11.776000	-4.920000
	10.399595	1362.964348	11.784000	-5.000000
	10.499600	1362.969106	11.780000	-4.860000
	10.599607	1362.981001	11.776000	-4.800000
	10.699612	1362.986948	11.794000	-4.850000
	10.800618	1362.992895	11.804000	-4.850000
	10.899623	1362.992895	11.804000	-4.850000
	10.999629	1363.002411	11.782000	-4.820000
	11.099635	1363.002411	11.794000	-4.900000
	11.199641	1363.014306	11.778000	-4.800000
	11.299646	1363.020254	11.798000	-4.850000
	11.399652	1363.020254	11.782000	-4.900000
	11.499658	1363.020254	11.796000	-4.900000
	11.599664	1363.026201	11.788000	-4.850000
	11.699669	1363.032148	11.788000	-4.850000
	11.799675	1363.032148	11.788000	-4.850000
	11.899681	1363.020254	11.796000	-5.000000
	11.999686	1363.028581	11.810000	-4.830000
	12.099692	1363.033339	11.782000	-4.860000
	12.199698	1363.041665	11.784000	-4.830000
	12.299704	1363.038097	11.786000	-4.930000
	12.399709	1363.053561	11.792000	-4.770000
	12.499715	1363.064267	11.794000	-4.810000
	12.599721	1363.074973	11.812000	-4.810000
	12.699727	1363.084489	11.820000	-4.820000
	12.800732	1363.090437	11.800000	-4.850000
	12.899738	1363.090437	11.800000	-4.850000
	12.999743	1363.091626	11.804000	-4.890000
	13.099750	1363.092816	11.816000	-4.890000
	13.199755	1363.088058	11.806000	-4.940000
	13.299761	1363.082110	11.794000	-4.950000
	13.399766	1363.072595	11.794000	-4.980000
	13.499772	1363.065458	11.792000	-4.960000
	13.599778	1363.065458	11.778000	-4.900000
	13.700784	1363.074974	11.790000	-4.820000
	13.799789	1363.078543	11.774000	-4.870000
	13.899795	1363.078543	11.774000	-4.870000
	13.999801	1363.091628	11.800000	-4.790000
	14.099806	1363.092817	11.800000	-4.890000
	14.199812	1363.092817	11.784000	-4.900000
	14.299818	1363.086870	11.810000	-4.950000
	14.399824	1363.076165	11.798000	-4.990000
	14.499829	1363.064270	11.768000	-5.000000
	14.601835	1363.054754	11.788000	-4.980000
	14.699841	1363.051186	11.796000	-4.930000
	14.799847	1363.051186	11.796000	-4.930000
	14.899852	1363.045239	11.784000	-4.950000
	14.999858	1363.039291	11.786000	-4.950000
	15.099864	1363.054756	11.798000	-4.770000
	15.199870	1363.065461	11.770000	-4.810000
	15.299875	1363.061893	11.786000	-4.930000
	15.399881	1363.057135	11.798000	-4.940000
	15.503887	1363.069030	11.790000	-4.800000
	15.600893	1363.059515	11.806000	-4.980000
	15.699898	1363.054757	11.806000	-4.940000
	15.799904	1363.058325	11.800000	-4.870000
	15.899909	1363.059515	11.794000	-4.890000
	15.999915	1363.066652	11.782000	-4.840000
	16.149924	1363.085685	11.794000	-4.740000
	16.249929	1363.076170	11.816000	-4.980000
	16.349935	1363.076170	11.816000	-4.980000
	16.449941	1363.084496	11.786000	-4.830000
	16.549947	1363.070223	11.770000	-5.020000
	16.649952	1363.063086	11.784000	-4.960000
	16.749958	1363.072602	11.794000	-4.820000
	16.849964	1363.077361	11.794000	-4.860000
	16.950970	1363.073792	11.790000	-4.930000
	16.999972	1363.071413	11.794000	-4.920000
	17.149981	1363.076171	11.786000	-4.860000
	17.249987	1363.069034	11.788000	-4.960000
	17.349992	1363.069034	11.796000	-4.900000
	17.449998	1363.070224	11.800000	-4.890000
	17.550004	1363.058329	11.804000	-5.000000
	17.650010	1363.057140	11.798000	-4.910000
	17.750015	1363.064277	11.796000	-4.840000
	17.850021	1363.064277	11.796000	-4.840000
	17.951027	1363.073793	11.768000	-4.820000
	18.050033	1363.077362	11.794000	-4.870000
	18.150038	1363.071414	11.798000	-4.950000
	18.250044	1363.061899	11.792000	-4.980000
	18.350049	1363.058330	11.776000	-4.930000
	18.450055	1363.044057	11.784000	-5.020000
	18.550061	1363.025027	11.794000	-5.060000
	18.650067	1363.027406	11.766000	-4.880000
	18.750072	1363.028595	11.796000	-4.890000
	18.850078	1363.028595	11.788000	-4.900000
	18.952084	1363.015512	11.820000	-5.010000
	19.050090	1363.005996	11.788000	-4.980000
	19.150095	1363.000049	11.792000	-4.950000
	19.250101	1363.005996	11.780000	-4.850000
	19.350107	1363.011944	11.802000	-4.850000
	19.450112	1363.013133	11.788000	-4.890000
	19.550118	1363.013133	11.788000	-4.890000
	19.650124	1363.007186	11.804000	-4.950000
	19.750130	1363.003618	11.786000	-4.930000
	19.850135	1362.997671	11.788000	-4.950000
	19.953141	1362.985777	11.784000	-5.000000
	20.050147	1362.982209	11.790000	-4.930000
	20.150153	1362.981019	11.798000	-4.910000
	20.250158	1362.973883	11.788000	-4.960000
	20.350164	1362.959611	11.782000	-5.020000
	20.450170	1362.970316	11.794000	-4.810000
	20.550176	1362.972694	11.794000	-4.880000
	20.650181	1362.989347	11.784000	-4.760000
	20.750187	1363.007190	11.802000	-4.750000
	20.851192	1363.003622	11.794000	-4.930000
	20.950198	1363.001243	11.802000	-4.920000
	21.050204	1363.001243	11.802000	-4.920000
	21.150210	1362.989349	11.780000	-5.000000
	21.250216	1362.960805	11.786000	-5.140000
	21.350221	1362.921560	11.770000	-5.230000
	21.450227	1362.872804	11.776000	-5.310000
	21.550232	1362.840695	11.782000	-5.170000
	21.650239	1362.814533	11.774000	-5.120000
	21.753244	1362.812155	11.766000	-4.920000
	21.850250	1362.815722	11.784000	-4.870000
	21.950255	1362.840700	11.808000	-4.690000
	22.050261	1362.824050	11.804000	-5.040000
	22.100264	1362.802645	11.776000	-5.080000
	22.250273	1362.785996	11.834000	-5.040000
	22.350278	1362.799079	11.758000	-4.790000
	22.450284	1362.791943	11.768000	-4.960000
	22.549290	1362.871651	11.842000	-4.230000
	22.649295	1362.851433	11.760000	-5.070000
	22.749301	1362.869274	11.838000	-4.750000
	22.849307	1362.764645	11.732000	-5.780000
	22.949313	1362.764645	11.732000	-5.780000
	23.049318	1362.746808	11.758000	-5.050000
	23.149324	1362.813423	11.876000	-4.340000
	23.249330	1362.759915	11.672000	-5.350000
	23.299333	1362.725431	11.662000	-5.190000
	23.449341	1362.773008	11.790000	-4.500000
	23.549347	1362.775387	11.628000	-4.880000
	23.649353	1362.924147	11.618000	-3.650000
	23.749359	1362.934852	11.780000	-4.810000
	23.849364	1362.918201	11.632000	-5.040000
	23.949370	1362.862311	11.720000	-5.370000
	24.049376	1362.862311	11.864000	-4.900000
	24.149381	1363.013464	11.826000	-3.630000
	24.249387	1362.984920	11.808000	-5.140000
	24.349393	1362.980162	11.870000	-4.940000
	24.449399	1362.989678	11.654000	-4.820000
	24.549404	1362.980163	11.758000	-4.980000
	24.649410	1362.980163	11.758000	-4.980000
	24.749416	1363.279227	11.522000	-2.390000
	24.849422	1364.321382	10.702000	3.760000
	24.949427	1364.987059	10.674000	0.660000
	25.049433	1365.384747	10.832000	-1.570000
	25.149438	1365.850955	10.940000	-1.000000
	25.249444	1366.198546	10.880000	-1.990000
	25.349450	1366.540235	10.752000	-2.040000
	25.449456	1366.800581	10.660000	-2.720000
	25.549461	1367.031064	10.738000	-2.970000
	25.649467	1367.173121	10.780000	-3.710000
	25.749473	1367.245921	10.690000	-4.290000
	25.849479	1367.352161	10.602000	-4.010000
	25.949484	1367.348581	10.540000	-4.930000
	26.049490	1367.348581	10.540000	-4.930000
	26.149496	1367.192329	10.666000	-6.210000
	26.249501	1367.025364	10.590000	-6.300000
	26.349507	1366.734417	10.562000	-7.340000
	26.449513	1366.642604	10.662000	-5.670000
	26.549519	1366.509079	10.706000	-6.020000
	26.649524	1366.373183	10.272000	-6.040000
	26.749530	1366.302848	10.518000	-5.490000
	26.849536	1366.259930	10.472000	-5.260000
	26.949542	1366.290934	10.362000	-4.640000
	27.049547	1366.273050	10.418000	-5.050000
	27.149553	1366.237285	10.348000	-5.200000
	27.249558	1366.181259	10.358000	-5.370000
	27.349565	1366.112126	10.276000	-5.480000
	27.449570	1366.013205	10.324000	-5.730000
	27.550576	1365.908335	10.300000	-5.780000
	27.649581	1365.908335	10.300000	-5.780000
	27.749587	1365.758204	10.404000	-6.160000
	27.849593	1365.612854	10.334000	-6.120000
	27.949599	1365.461564	10.390000	-6.170000
	28.049604	1365.310291	10.368000	-6.170000
	28.149610	1365.189995	10.402000	-5.910000
	28.249616	1365.056611	10.394000	-6.020000
	28.349622	1364.966102	10.394000	-5.660000
	28.452628	1364.868455	10.430000	-5.720000
	28.549633	1364.786292	10.392000	-5.590000
	28.649639	1364.760092	10.422000	-5.120000
	28.749644	1364.795827	10.526000	-4.600000
	28.849650	1364.698192	10.386000	-5.720000
	28.951656	1364.632705	10.274000	-5.450000
	29.049662	1364.527941	10.450000	-5.780000
	29.149667	1364.530322	10.402000	-4.880000
	29.249673	1364.523178	10.374000	-4.960000
	29.349679	1364.523178	10.374000	-4.960000
	29.449685	1364.499365	10.340000	-5.100000
	29.549690	1364.491030	10.390000	-4.970000
	29.649696	1364.462455	10.394000	-5.140000
	29.749701	1364.461264	10.372000	-4.910000
	29.849707	1364.457692	10.398000	-4.930000
	29.949713	1364.432689	10.402000	-5.110000
	30.049719	1364.421973	10.380000	-4.990000
	30.149724	1364.412448	10.392000	-4.980000
	30.249730	1364.375542	10.410000	-5.210000
	30.349736	1364.382686	10.400000	-4.840000
	30.449742	1364.394593	10.410000	-4.800000
	30.549747	1364.388640	10.394000	-4.950000
	30.649753	1364.394593	10.358000	-4.850000
	30.749759	1364.393402	10.410000	-4.910000
	30.849764	1364.386259	10.414000	-4.960000
	30.949770	1364.382687	10.396000	-4.930000
	31.049776	1364.382687	10.396000	-4.930000
	31.149782	1364.391021	10.404000	-4.830000
	31.250788	1364.382687	10.410000	-4.970000
	31.349793	1364.394594	10.404000	-4.800000
	31.449799	1364.402929	10.384000	-4.830000
	31.549805	1364.401738	10.392000	-4.910000
	31.649810	1364.405310	10.398000	-4.870000
	31.749816	1364.433890	10.406000	-4.660000
	31.849822	1364.423174	10.414000	-4.990000
	31.949828	1364.424364	10.394000	-4.890000
	32.049833	1364.444608	10.396000	-4.730000
	32.149839	1364.444608	10.404000	-4.900000
	32.257845	1364.446989	10.386000	-4.880000
	32.349850	1364.458897	10.396000	-4.800000
	32.449856	1364.452943	10.412000	-4.950000
	32.549862	1364.451752	10.388000	-4.910000
	32.649868	1364.451752	10.388000	-4.910000
	32.751873	1364.455325	10.410000	-4.870000
	32.849879	1364.454134	10.406000	-4.910000
	32.949885	1364.446990	10.392000	-4.960000
	33.049891	1364.452944	10.388000	-4.850000
	33.150896	1364.466042	10.404000	-4.790000
	33.251902	1364.460089	10.398000	-4.950000
	33.349907	1364.469615	10.378000	-4.820000
	33.449914	1364.482713	10.408000	-4.790000
	33.549919	1364.479141	10.418000	-4.930000
	33.649925	1364.469615	10.370000	-4.980000
	33.749930	1364.485096	10.400000	-4.770000
	33.849936	1364.497004	10.432000	-4.800000
	33.949942	1364.487478	10.412000	-4.980000
	34.049948	1364.487478	10.412000	-4.980000
	34.149953	1364.518441	10.392000	-4.640000
	34.249959	1364.538686	10.398000	-4.730000
	34.349965	1364.549403	10.388000	-4.810000
	34.449971	1364.564884	10.386000	-4.770000
	34.549976	1364.592276	10.402000	-4.670000
	34.649982	1364.586322	10.390000	-4.950000
	34.751988	1364.595849	10.380000	-4.820000
	34.849993	1364.594658	10.416000	-4.910000
	34.949999	1364.607758	10.394000	-4.790000
	35.051005	1364.616094	10.390000	-4.830000
	35.150011	1364.631576	10.392000	-4.770000
	35.250016	1364.629194	10.390000	-4.920000
	35.350022	1364.666116	10.388000	-4.590000
	35.450028	1364.713761	10.404000	-4.500000
	35.550034	1364.730435	10.392000	-4.760000
	35.650039	1364.751874	10.384000	-4.720000
	35.750045	1364.751874	10.384000	-4.720000
	35.850050	1364.778078	10.396000	-4.680000
	35.950057	1364.776887	10.416000	-4.910000
	36.050062	1364.787607	10.400000	-4.810000
	36.150068	1364.810238	10.414000	-4.710000
	36.250073	1364.816193	10.418000	-4.850000
	36.350079	1364.837633	10.388000	-4.720000
	36.450085	1364.844780	10.388000	-4.840000
	36.550091	1364.835252	10.412000	-4.980000
	36.650096	1364.836443	10.372000	-4.890000
	36.750102	1364.844780	10.396000	-4.830000
	36.850108	1364.844780	10.412000	-4.900000
	36.950114	1364.841207	10.386000	-4.930000
	37.051119	1364.840016	10.380000	-4.910000
	37.150125	1364.840016	10.418000	-4.900000
	37.250131	1364.843589	10.358000	-4.870000
	37.350136	1364.843589	10.358000	-4.870000
	37.450142	1364.861456	10.404000	-4.750000
	37.600151	1364.853119	10.388000	-4.970000
	37.700156	1364.845973	10.382000	-4.960000
	37.800162	1364.857884	10.404000	-4.800000
	37.900168	1364.841210	10.394000	-5.040000
	38.000174	1364.857886	10.382000	-4.760000
	38.100179	1364.865032	10.406000	-4.840000
	38.200185	1364.856695	10.374000	-4.970000
	38.300191	1364.855504	10.368000	-4.910000
	38.400197	1364.860268	10.404000	-4.860000
	38.500202	1364.849549	10.402000	-4.990000
	38.600208	1364.840021	10.386000	-4.980000
	38.700213	1364.844785	10.396000	-4.860000
	38.800220	1364.832875	10.394000	-5.000000
	38.900225	1364.855507	10.366000	-4.710000
	39.000231	1364.867418	10.390000	-4.800000
	39.100236	1364.867418	10.390000	-4.800000
	39.202242	1364.857890	10.380000	-4.980000
	39.300248	1364.866228	10.398000	-4.830000
	39.401254	1364.865036	10.400000	-4.910000
	39.500259	1364.869801	10.384000	-4.860000
	39.600265	1364.884095	10.390000	-4.780000
	39.700271	1364.884095	10.400000	-4.900000
	39.800277	1364.887668	10.372000	-4.870000
	39.900282	1364.894815	10.396000	-4.840000
	39.999288	1364.887668	10.390000	-4.960000
	40.099294	1364.885286	10.382000	-4.920000
	40.199299	1364.886477	10.398000	-4.890000
	40.299305	1364.881713	10.404000	-4.940000
	40.399311	1364.884095	10.360000	-4.880000
	40.499317	1364.898389	10.388000	-4.780000
	40.599322	1364.898389	10.388000	-4.780000
	40.700328	1364.879333	10.422000	-5.060000
	40.799334	1364.884097	10.384000	-4.860000
	40.899339	1364.903156	10.398000	-4.740000
	40.999345	1364.899582	10.398000	-4.930000
	41.099351	1364.897200	10.394000	-4.920000
	41.199357	1364.887672	10.414000	-4.980000
	41.299362	1364.888863	10.384000	-4.890000
	41.399368	1364.900774	10.388000	-4.800000
	41.499374	1364.888864	10.404000	-5.000000
	41.599380	1364.886482	10.372000	-4.920000
	41.699385	1364.896011	10.412000	-4.820000
	41.799391	1364.885291	10.386000	-4.990000
	41.901397	1364.882909	10.394000	-4.920000
	41.999403	1364.884100	10.404000	-4.890000
	42.099408	1364.881718	10.358000	-4.920000
	42.199414	1364.899585	10.378000	-4.750000
	42.299419	1364.899585	10.378000	-4.750000
	42.399425	1364.904350	10.420000	-4.860000
	42.499431	1364.900777	10.400000	-4.930000
	42.599437	1364.888866	10.374000	-5.000000
	42.699442	1364.896013	10.402000	-4.840000
	42.799448	1364.885293	10.398000	-4.990000
	42.899454	1364.868619	10.384000	-5.040000
	42.999460	1364.867428	10.402000	-4.910000
	43.099465	1364.868619	10.396000	-4.890000
	43.202471	1364.886487	10.384000	-4.750000
	43.299477	1364.892442	10.402000	-4.850000
	43.399482	1364.882914	10.382000	-4.980000
	43.499488	1364.880532	10.382000	-4.920000
	43.601494	1364.890061	10.420000	-4.820000
	43.699500	1364.882914	10.402000	-4.960000
	43.799505	1364.904355	10.394000	-4.720000
	43.899511	1364.904355	10.394000	-4.720000
	43.999517	1364.906738	10.394000	-4.880000
	44.099523	1364.893636	10.384000	-5.010000
	44.201528	1364.897209	10.394000	-4.870000
	44.299534	1364.892445	10.396000	-4.940000
	44.399539	1364.886490	10.374000	-4.950000
	44.499546	1364.888872	10.388000	-4.880000
	44.599551	1364.892445	10.400000	-4.870000
	44.699557	1364.881726	10.394000	-4.990000
	44.799562	1364.899593	10.402000	-4.750000
	44.899568	1364.890065	10.400000	-4.980000
	44.999574	1364.882919	10.368000	-4.960000
	45.101580	1364.900786	10.384000	-4.750000
	45.199585	1364.893640	10.416000	-4.960000
	45.299591	1364.904360	10.386000	-4.810000
	45.399597	1364.904360	10.400000	-4.900000
	45.499602	1364.896022	10.400000	-4.970000
	45.599608	1364.896022	10.400000	-4.970000
	45.699614	1364.898405	10.392000	-4.880000
	45.799620	1364.905551	10.412000	-4.840000
	45.899625	1364.894832	10.396000	-4.990000
	45.999631	1364.903170	10.372000	-4.830000
	46.100637	1364.917464	10.398000	-4.780000
	46.199643	1364.923420	10.392000	-4.850000
	46.299648	1364.925802	10.384000	-4.880000
	46.399654	1364.926993	10.404000	-4.890000
	46.499660	1364.925802	10.394000	-4.910000
	46.599666	1364.932949	10.396000	-4.840000
	46.699671	1364.931758	10.410000	-4.910000
	46.799677	1364.926993	10.398000	-4.940000
	46.899683	1364.932949	10.382000	-4.850000
	46.999688	1364.928185	10.408000	-4.940000
	47.099694	1364.919847	10.378000	-4.970000
	47.199700	1364.919847	10.378000	-4.970000
	47.299706	1364.928185	10.390000	-4.830000
	47.399711	1364.925803	10.396000	-4.920000
	47.499717	1364.918656	10.392000	-4.960000
	47.599723	1364.926994	10.412000	-4.830000
	47.699728	1364.932950	10.430000	-4.850000
	47.799734	1364.928186	10.388000	-4.940000
	47.899740	1364.925803	10.394000	-4.920000
	47.999745	1364.912702	10.408000	-5.010000
	48.099751	1364.911511	10.380000	-4.910000
	48.199757	1364.922231	10.406000	-4.810000
	48.299763	1364.911511	10.396000	-4.990000
	48.399768	1364.907938	10.378000	-4.930000
	48.499774	1364.924615	10.384000	-4.760000
	48.599780	1364.922232	10.404000	-4.920000
	48.699786	1364.922232	10.404000	-4.920000
	48.799791	1364.909131	10.390000	-5.010000
	48.899797	1364.912704	10.392000	-4.870000
	48.999803	1364.918660	10.414000	-4.850000
	49.099808	1364.903176	10.382000	-5.030000
	49.199814	1364.921044	10.382000	-4.750000
	49.299820	1364.906751	10.404000	-5.020000
	49.399826	1364.907942	10.364000	-4.890000
	49.499831	1364.911516	10.398000	-4.870000
	49.599837	1364.917471	10.404000	-4.850000
	49.700843	1364.905561	10.378000	-5.000000
	49.799849	1364.874595	10.370000	-5.160000
	49.899854	1364.965152	10.346000	-4.140000
	49.999860	1364.942522	10.092000	-5.090000
	50.100866	1364.938949	10.416000	-4.930000
	50.199872	1364.929420	10.442000	-4.980000
	50.299877	1364.912745	10.358000	-5.040000
	50.399883	1364.912745	10.358000	-5.040000
	50.499888	1364.891307	10.410000	-5.080000
	50.599894	1364.847243	10.402000	-5.270000
	50.699900	1364.809134	10.394000	-5.220000
	50.801906	1364.793652	10.422000	-5.030000
	50.899911	1365.481315	10.364000	0.840000
	50.999917	1365.326467	10.384000	-6.200000
	51.099923	1365.232367	10.402000	-5.690000
	51.199929	1365.145419	10.438000	-5.630000
	51.299934	1365.103729	10.350000	-5.250000
	51.400940	1364.801281	10.208000	-7.440000
	51.499946	1364.857271	10.378000	-4.430000
	51.599951	1364.925181	10.348000	-4.330000
	51.699957	1364.989519	10.334000	-4.360000
	51.802963	1365.162386	10.348000	-3.450000
	51.899969	1365.391399	10.594000	-2.980000
	51.999974	1365.373527	10.378000	-5.050000
	52.099980	1365.373527	10.378000	-5.050000
	52.199986	1365.385443	10.314000	-4.800000
	52.299992	1365.373528	10.392000	-5.000000
	52.400997	1365.355656	10.362000	-5.050000
	52.500003	1365.386639	10.608000	-4.640000
	52.600008	1365.394980	10.492000	-4.830000
	52.700014	1365.480802	10.384000	-4.180000
	52.800020	1365.564244	10.360000	-4.200000
	52.900026	1365.514201	10.460000	-5.320000
	53.000031	1365.397460	10.244000	-5.880000
	53.100037	1365.389119	10.384000	-4.970000
	53.200043	1365.358143	10.388000	-5.160000
	53.300049	1365.364100	10.342000	-4.850000
	53.400054	1365.367675	10.382000	-4.870000
	53.500060	1365.367675	10.382000	-4.870000
	53.600066	1365.359335	10.342000	-4.970000
	53.702072	1365.379592	10.372000	-4.730000
	53.800077	1365.389124	10.362000	-4.820000
	53.900083	1365.409382	10.336000	-4.730000
	54.000089	1365.401041	10.382000	-4.970000
	54.100094	1365.396275	10.358000	-4.940000
	54.200100	1365.457058	10.334000	-4.390000
	54.300106	1365.439186	10.378000	-5.050000
	54.400112	1365.441569	10.362000	-4.880000
	54.500117	1365.437994	10.374000	-4.930000
	54.600123	1365.427271	10.342000	-4.990000
	54.703129	1365.430845	10.374000	-4.870000
	54.800135	1365.343884	10.360000	-5.630000
	54.900140	1365.373675	10.332000	-4.650000
	55.000146	1365.383207	10.368000	-4.820000
	55.100152	1365.390357	10.340000	-4.840000
	55.200157	1365.390357	10.340000	-4.840000
	55.300163	1365.372485	10.368000	-5.050000
	55.400169	1365.384400	10.368000	-4.800000
	55.500175	1365.403466	10.356000	-4.740000
	55.601180	1365.412999	10.352000	-4.820000
	55.700186	1365.422532	10.318000	-4.820000
	55.800192	1365.646809	10.826000	-3.020000
	55.900198	1365.539584	10.474000	-5.800000
	56.000203	1365.533626	10.340000	-4.950000
	56.100209	1365.521710	10.354000	-5.000000
	56.200214	1365.515752	10.322000	-4.950000
	56.300220	1365.513369	10.336000	-4.920000
	56.400226	1365.507411	10.324000	-4.950000
	56.500232	1365.600395	10.446000	-4.120000
	56.602238	1365.542012	10.378000	-5.390000
	56.700243	1365.543204	10.340000	-4.890000
	56.800249	1365.543204	10.340000	-4.890000
	56.900255	1365.527713	10.398000	-5.030000
	57.000260	1365.565852	10.310000	-4.580000
	57.100266	1365.563468	10.474000	-4.920000
	57.200272	1365.559893	10.338000	-4.930000
	57.300277	1365.550360	10.374000	-4.980000
	57.400283	1365.551552	10.344000	-4.890000
	57.503289	1365.564661	10.362000	-4.790000
	57.599295	1365.534872	10.360000	-5.150000
	57.699300	1365.546789	10.344000	-4.800000
	57.799306	1365.521766	10.348000	-5.110000
	57.899312	1365.524150	10.338000	-4.880000
	57.999318	1365.515808	10.360000	-4.970000
	58.099323	1365.519383	10.324000	-4.870000
	58.199329	1365.509851	10.370000	-4.980000
	58.299335	1365.500318	10.332000	-4.980000
	58.399340	1365.518193	10.370000	-4.750000
	58.501346	1365.518193	10.370000	-4.750000
	58.599352	1365.518193	10.344000	-4.900000
	58.699358	1365.521768	10.360000	-4.870000
	58.799363	1365.506278	10.354000	-5.030000
	58.899369	1365.517003	10.344000	-4.810000
	58.999375	1365.513428	10.394000	-4.930000
	59.099380	1365.514620	10.346000	-4.890000
	59.199386	1365.513428	10.378000	-4.910000
	59.299392	1365.509853	10.328000	-4.930000
	59.399397	1365.522962	10.348000	-4.790000
	59.500403	1365.515812	10.358000	-4.960000
	59.599409	1365.512237	10.342000	-4.930000
	59.699415	1365.506279	10.384000	-4.950000
	59.799420	1365.514621	10.328000	-4.830000
	59.899426	1365.515813	10.362000	-4.890000
	59.999432	1365.515813	10.362000	-4.890000
	60.099438	1365.511046	10.342000	-4.940000
	60.199443	1365.522963	10.360000	-4.800000
	60.299449	1365.518196	10.370000	-4.940000
	60.400455	1365.532497	10.346000	-4.780000
	60.499460	1365.543222	10.360000	-4.810000
	60.599466	1365.522965	10.346000	-5.070000
	60.699472	1365.547992	10.364000	-4.690000
	60.799478	1365.549184	10.322000	-4.890000
	60.899483	1365.502716	10.286000	-5.290000
	60.999489	1365.459824	10.380000	-5.260000
	61.099495	1365.480082	10.350000	-4.730000
	61.199501	1365.497958	10.362000	-4.750000
	61.299506	1365.499149	10.338000	-4.890000
	61.399512	1365.520600	10.356000	-4.720000
	61.499517	1365.515834	10.350000	-4.940000
	61.599524	1365.544436	10.346000	-4.660000
	61.699529	1365.544436	10.346000	-4.660000
	61.799535	1365.540861	10.372000	-4.930000
	61.899540	1365.562313	10.342000	-4.720000
	61.999546	1365.563505	10.354000	-4.890000
	62.099552	1365.613565	10.206000	-4.480000
	62.199558	1365.556373	10.418000	-5.380000
	62.300563	1365.305048	10.500000	-7.010000
	62.399569	1365.357483	10.224000	-4.460000
	62.499575	1365.395617	10.366000	-4.580000
	62.599581	1365.421833	10.342000	-4.680000
	62.699586	1365.469504	10.316000	-4.500000
	62.799592	1365.507641	10.310000	-4.580000
	62.899598	1365.608975	10.404000	-4.050000
	62.999603	1365.624468	10.396000	-4.770000
	63.099609	1365.694801	10.310000	-4.310000
	63.201615	1365.670967	10.342000	-5.100000
	63.299621	1365.670967	10.342000	-5.100000
	63.399626	1365.679310	10.338000	-4.830000
	63.499632	1365.717452	10.270000	-4.580000
	63.599638	1365.737715	10.312000	-4.730000
	63.699644	1365.744866	10.282000	-4.840000
	63.799649	1365.798510	10.248000	-4.450000
	63.899655	1365.785400	10.284000	-5.010000
	63.999660	1365.818777	10.336000	-4.620000
	64.099666	1365.835465	10.282000	-4.760000
	64.199672	1365.859305	10.092000	-4.700000
	64.299678	1365.858113	10.310000	-4.910000
	64.399683	1365.822359	10.262000	-5.200000
	64.499689	1365.842623	10.248000	-4.730000
	64.650698	1365.848583	10.258000	-4.850000
	64.749703	1365.858119	10.234000	-4.820000
	64.849709	1365.858119	10.234000	-4.820000
	64.949715	1365.856927	10.280000	-4.910000
	64.999718	1365.849775	10.282000	-4.960000
	65.149726	1365.846200	10.262000	-4.930000
	65.249732	1365.783040	10.344000	-5.430000
	65.349738	1365.796152	10.270000	-4.790000
	65.449744	1365.781850	10.282000	-5.020000
	65.549749	1365.790193	10.278000	-4.830000
	65.599752	1365.784234	10.280000	-4.950000
	65.749761	1365.789001	10.266000	-4.860000
	65.849766	1365.787810	10.296000	-4.910000
	65.949772	1365.804497	10.214000	-4.760000
	66.049778	1365.885573	10.230000	-4.220000
	66.149784	1365.861736	10.262000	-5.100000
	66.249789	1365.860544	10.204000	-4.910000
	66.349795	1365.861736	10.242000	-4.890000
	66.449801	1365.861736	10.242000	-4.890000
	66.552807	1366.019191	10.250000	-3.580000
	66.650812	1365.989392	10.254000	-5.150000
	66.749818	1365.936951	10.248000	-5.340000
	66.849823	1365.921455	10.250000	-5.030000
	66.949830	1365.878550	10.292000	-5.260000
	67.049835	1365.853521	10.226000	-5.110000
	67.149841	1365.855905	10.230000	-4.880000
	67.249846	1365.871401	10.176000	-4.770000
	67.349852	1365.845180	10.252000	-5.120000
	67.449858	1393.204389	0.170000	69.730000
	67.549864	1431.886493	0.174000	73.490000
	67.649869	1465.453282	0.164000	71.680000
	67.749875	1485.916284	0.184000	64.130000
	67.849881	1465.863596	3.192000	-75.830000
	67.949886	1448.626653	3.728000	-73.080000
	68.049892	1448.626653	3.728000	-73.080000
	68.149898	1434.081716	4.388000	-69.580000
	68.249904	1422.184551	5.098000	-64.880000
	68.349909	1445.624545	0.214000	66.910000
	68.449915	1463.773140	0.196000	62.150000
	68.549921	1483.997487	0.202000	63.940000
	68.649927	1510.272108	0.206000	68.000000
	68.750932	1576.986123	0.222000	77.200000
	68.849938	1610.168722	0.180000	70.370000
	68.950944	1631.283676	0.220000	62.980000
	69.049950	1663.355542	0.206000	69.480000
	69.149955	1686.223178	0.244000	63.850000
	69.249961	1700.229707	0.276000	53.010000
	69.349967	1655.944688	1.172000	-85.400000
	69.450973	1608.417646	1.442000	-86.390000
	69.549978	1573.473214	1.686000	-83.290000
	69.649984	1537.823286	1.962000	-83.810000
	69.749990	1537.823286	1.962000	-83.810000
	69.849995	1507.695794	2.310000	-81.920000
	69.950001	1483.199498	2.750000	-79.100000
	70.050007	1462.948707	3.234000	-76.050000
	70.150012	1446.381114	3.786000	-72.280000
	70.250018	1432.230955	4.472000	-68.970000
	70.350024	1420.690630	5.158000	-64.120000
	70.450029	1411.071368	5.882000	-59.390000
	70.550035	1403.132470	6.636000	-54.080000
	70.650041	1396.537098	7.340000	-48.810000
	70.750047	1391.065971	7.958000	-43.530000
	70.850052	1386.612799	8.532000	-37.950000
	70.950058	1382.907937	8.924000	-33.340000
	71.050064	1379.863234	9.386000	-28.900000
	71.150070	1377.327739	9.666000	-25.250000
	71.250075	1375.291207	9.820000	-21.490000
	71.350081	1375.291207	9.820000	-21.490000
	71.450087	1373.544463	9.900000	-19.240000
	71.550093	1372.169098	10.014000	-16.280000
	71.650098	1371.044072	10.110000	-14.250000
	71.750104	1370.093696	10.180000	-12.820000
	71.850110	1369.329849	10.208000	-11.280000
	71.950115	1368.697373	10.194000	-10.190000
	72.050121	1368.157442	10.192000	-9.420000
	72.150127	1367.696659	10.238000	-8.760000
	72.250133	1367.349481	10.250000	-7.810000
	72.351138	1367.040571	10.234000	-7.490000
	72.450144	1366.797319	10.304000	-6.940000
	72.550150	1366.608946	10.224000	-6.480000
	72.650156	1366.436093	10.280000	-6.350000
	72.750161	1366.301396	10.224000	-6.030000
	72.850167	1366.177437	10.268000	-5.940000
	72.950172	1366.177437	10.268000	-5.940000
	73.050179	1366.086853	10.232000	-5.660000
	73.150184	1366.010575	10.268000	-5.540000
	73.253190	1365.935492	10.248000	-5.530000
	73.350195	1365.883053	10.266000	-5.340000
	73.450201	1365.838957	10.244000	-5.270000
	73.550207	1365.810354	10.260000	-5.140000
	73.650213	1365.773410	10.272000	-5.210000
	73.750218	1365.747191	10.254000	-5.120000
	73.850224	1365.729315	10.260000	-5.050000
	73.950230	1365.707864	10.256000	-5.080000
	74.050236	1365.713823	10.278000	-4.850000
	74.150241	1365.687605	10.254000	-5.120000
	74.250247	1365.681646	10.256000	-4.950000
	74.350253	1365.668537	10.264000	-5.010000
	74.450258	1365.648279	10.242000	-5.070000
	74.564265	1365.648279	10.242000	-5.070000
	74.650270	1365.645895	10.252000	-4.920000
	74.750276	1365.629212	10.264000	-5.040000
	74.850281	1365.635171	10.266000	-4.850000
	74.950287	1365.641129	10.270000	-4.850000
	75.049293	1365.625638	10.238000	-5.030000
	75.149298	1365.635172	10.268000	-4.820000
	75.249304	1365.623255	10.274000	-5.000000
	75.349310	1365.637556	10.264000	-4.780000
	75.449316	1365.630406	10.286000	-4.960000
	75.550322	1365.625639	10.256000	-4.940000
	75.649327	1365.635173	10.268000	-4.820000
	75.749332	1365.614915	10.266000	-5.070000
	75.849339	1365.637560	10.246000	-4.710000
	75.949344	1365.633985	10.288000	-4.930000
	76.049350	1365.630410	10.260000	-4.930000
	76.149355	1365.630410	10.260000	-4.930000
	76.249361	1365.636369	10.268000	-4.850000
	76.349367	1365.629218	10.262000	-4.960000
	76.449373	1365.631602	10.234000	-4.880000
	76.549378	1365.645903	10.260000	-4.780000
	76.649384	1365.622070	10.270000	-5.100000
	76.749390	1365.619687	10.256000	-4.920000
	76.849396	1365.622070	10.272000	-4.880000
	76.949401	1365.612537	10.264000	-4.980000
	77.051407	1365.606578	10.278000	-4.950000
	77.149413	1365.603003	10.278000	-4.930000
	77.249418	1365.591087	10.252000	-5.000000
	77.349424	1365.603004	10.280000	-4.800000
	77.449430	1365.591088	10.280000	-5.000000
	77.549436	1365.591088	10.280000	-5.000000
	77.649441	1365.601813	10.254000	-4.810000
	77.749447	1365.593472	10.278000	-4.970000
	77.849453	1365.568448	10.262000	-5.110000
	77.949459	1365.593476	10.254000	-4.690000
	78.049464	1365.585134	10.272000	-4.970000
	78.149470	1365.580367	10.254000	-4.940000
	78.249475	1365.585134	10.270000	-4.860000
	78.349482	1365.587518	10.270000	-4.880000
	78.449487	1365.588709	10.280000	-4.890000
	78.549493	1365.598243	10.290000	-4.820000
	78.649498	1365.593477	10.250000	-4.940000
	78.749504	1365.616121	10.246000	-4.710000
	78.849510	1365.612546	10.280000	-4.930000
	78.954516	1365.605396	10.250000	-4.960000
	79.049521	1365.619697	10.264000	-4.780000
	79.149527	1365.619697	10.264000	-4.780000
	79.249533	1365.616122	10.302000	-4.930000
	79.349539	1365.601822	10.264000	-5.020000
	79.449544	1365.617315	10.266000	-4.770000
	79.549550	1365.610165	10.282000	-4.960000
	79.649556	1365.610165	10.250000	-4.900000
	79.749561	1365.603015	10.296000	-4.960000
	79.849567	1365.603015	10.280000	-4.900000
	79.949573	1365.612549	10.280000	-4.820000
	80.049579	1365.618507	10.272000	-4.850000
	80.149584	1365.604207	10.248000	-5.020000
	80.249590	1365.612550	10.286000	-4.830000
	80.349596	1365.605400	10.250000	-4.960000
	80.449602	1365.613742	10.284000	-4.830000
	80.549607	1365.601825	10.278000	-5.000000
	80.649613	1365.583951	10.262000	-5.050000
	80.749619	1365.589909	10.298000	-4.850000
	80.849625	1365.589909	10.298000	-4.850000
	80.949630	1365.575610	10.270000	-5.020000
	81.049636	1365.583952	10.262000	-4.830000
	81.149642	1365.588718	10.272000	-4.860000
	81.249647	1365.569653	10.266000	-5.060000
	81.349653	1365.577995	10.280000	-4.830000
	81.449659	1365.574420	10.272000	-4.930000
	81.549664	1365.539865	10.258000	-5.190000
	81.649670	1365.541056	10.260000	-4.890000
	81.749676	1365.531523	10.310000	-4.980000
	81.851682	1365.526757	10.268000	-4.940000
	81.949687	1365.531524	10.278000	-4.860000
	82.049693	1365.518416	10.292000	-5.010000
	82.149699	1365.526758	10.254000	-4.830000
	82.249704	1365.545825	10.276000	-4.740000
	82.349710	1365.529143	10.274000	-5.040000
	82.449716	1365.529143	10.274000	-5.040000
	82.549722	1365.542252	10.276000	-4.790000
	82.649727	1365.531527	10.256000	-4.990000
	82.749733	1365.549403	10.274000	-4.750000
	82.849739	1365.557745	10.292000	-4.830000
	82.949745	1365.537488	10.296000	-5.070000
	83.049750	1365.544638	10.276000	-4.840000
	83.150756	1365.551789	10.308000	-4.840000
	83.249762	1365.543447	10.276000	-4.970000
	83.349767	1365.556556	10.278000	-4.790000
	83.449773	1365.547023	10.296000	-4.980000
	83.549779	1365.532724	10.274000	-5.020000
	83.649785	1365.545833	10.284000	-4.790000
	83.750790	1365.544641	10.282000	-4.910000
	83.849796	1365.555366	10.262000	-4.810000
	83.949802	1365.545833	10.280000	-4.980000
	84.049808	1365.536300	10.266000	-4.980000
	84.149813	1365.536300	10.266000	-4.980000
	84.249819	1365.530342	10.286000	-4.950000
	84.349824	1365.527959	10.308000	-4.920000
	84.449831	1365.532726	10.282000	-4.860000
	84.549836	1365.538684	10.288000	-4.850000
	84.652842	1365.516044	10.292000	-5.090000
	84.749847	1365.524386	10.270000	-4.830000
	84.849853	1365.530344	10.304000	-4.850000
	84.949859	1365.523195	10.250000	-4.960000
	85.049865	1365.538687	10.290000	-4.770000
	85.149870	1365.524388	10.278000	-5.020000
	85.249876	1365.522004	10.274000	-4.920000
	85.349882	1365.526771	10.290000	-4.860000
	85.449888	1365.520813	10.270000	-4.950000
	85.549893	1365.524388	10.274000	-4.870000
	85.649899	1365.533921	10.290000	-4.820000
	85.749905	1365.522005	10.266000	-5.000000
	85.849910	1365.522005	10.266000	-5.000000
	85.949916	1365.525580	10.284000	-4.870000
	86.049922	1365.529155	10.298000	-4.870000
	86.149928	1365.506516	10.282000	-5.090000
	86.249933	1365.514858	10.290000	-4.830000
	86.349939	1365.510091	10.296000	-4.940000
	86.449945	1365.513666	10.262000	-4.870000
	86.549951	1365.522008	10.300000	-4.830000
	86.649956	1365.510092	10.294000	-5.000000
	86.749962	1365.512475	10.276000	-4.880000
	86.849967	1365.507709	10.290000	-4.940000
	86.949973	1365.505325	10.266000	-4.920000
	87.049979	1365.519626	10.306000	-4.780000
	87.149985	1365.508901	10.278000	-4.990000
	87.249990	1365.508901	10.274000	-4.900000
	87.349996	1365.507710	10.276000	-4.910000
	87.450002	1365.502943	10.282000	-4.940000
	87.557008	1365.502943	10.282000	-4.940000
	87.650013	1365.500560	10.278000	-4.920000
	87.750019	1365.504135	10.292000	-4.870000
	87.850025	1365.501752	10.294000	-4.920000
	87.950030	1365.508902	10.296000	-4.840000
	88.050036	1365.516052	10.280000	-4.840000
	88.152042	1365.491029	10.274000	-5.110000
	88.250048	1365.501754	10.276000	-4.810000
	88.352054	1365.491030	10.312000	-4.990000
	88.452059	1365.476732	10.254000	-5.020000
	88.551065	1365.491032	10.270000	-4.780000
	88.650071	1365.482690	10.310000	-4.970000
	88.800079	1365.480307	10.284000	-4.920000
	88.900085	1365.480307	10.284000	-4.900000
	88.950088	1365.482691	10.280000	-4.880000
	89.100096	1365.482691	10.280000	-4.880000
	89.200102	1365.486265	10.276000	-4.870000
	89.300108	1365.502949	10.292000	-4.760000
	89.400114	1365.495799	10.294000	-4.960000
	89.500119	1365.494608	10.290000	-4.910000
	89.600125	1365.495799	10.282000	-4.890000
	89.700130	1365.482692	10.298000	-5.010000
	89.800137	1365.480309	10.300000	-4.920000
	89.850139	1365.473160	10.294000	-4.960000
	90.000148	1365.481501	10.286000	-4.830000
	90.100153	1365.467202	10.296000	-5.020000
	90.200159	1365.461245	10.282000	-4.950000
	90.300165	1365.479120	10.296000	-4.750000
	90.400171	1365.481503	10.302000	-4.880000
	90.500176	1365.469587	10.264000	-5.000000
	90.600182	1365.469587	10.264000	-5.000000
	90.700188	1365.483887	10.274000	-4.780000
	90.800193	1365.476738	10.296000	-4.960000
	90.900199	1365.475546	10.282000	-4.910000
	91.000205	1365.496997	10.300000	-4.720000
	91.100211	1365.482698	10.292000	-5.020000
	91.200216	1365.483890	10.294000	-4.890000
	91.300222	1365.482698	10.304000	-4.910000
	91.400228	1365.481507	10.296000	-4.910000
	91.500234	1365.483890	10.296000	-4.880000
	91.600239	1365.502957	10.304000	-4.740000
	91.700245	1365.477935	10.276000	-5.110000
	91.800251	1365.482701	10.260000	-4.860000
	91.900257	1365.492235	10.312000	-4.820000
	92.000262	1365.488660	10.288000	-4.930000
	92.100268	1365.488660	10.288000	-4.930000
	92.200274	1365.483893	10.282000	-4.940000
	92.300279	1365.494618	10.298000	-4.810000
	92.400285	1365.474362	10.286000	-5.070000
	92.499291	1365.482704	10.270000	-4.830000
	92.599297	1365.473171	10.300000	-4.980000
	92.699302	1365.456490	10.296000	-5.040000
	92.799308	1365.468406	10.282000	-4.800000
	92.899313	1365.466023	10.296000	-4.920000
	92.999320	1365.458874	10.272000	-4.960000
	93.099325	1365.462448	10.292000	-4.870000
	93.199331	1365.458874	10.292000	-4.930000
	93.299336	1365.460065	10.284000	-4.890000
	93.402342	1365.470790	10.286000	-4.810000
	93.499348	1365.463641	10.310000	-4.960000
	93.599354	1365.454108	10.286000	-4.980000
	93.699359	1365.469600	10.298000	-4.770000
	93.799365	1365.469600	10.298000	-4.770000
	93.899371	1365.464833	10.278000	-4.940000
	93.999377	1365.450535	10.286000	-5.020000
	94.099382	1365.457685	10.300000	-4.840000
	94.199388	1365.445769	10.290000	-5.000000
	94.299394	1365.439812	10.292000	-4.950000
	94.399399	1365.438620	10.294000	-4.910000
	94.499405	1365.442195	10.302000	-4.870000
	94.599411	1365.435046	10.272000	-4.960000
	94.699417	1365.449345	10.290000	-4.780000
	94.799422	1365.448154	10.306000	-4.910000
	94.899428	1365.444579	10.278000	-4.930000
	94.999434	1365.461262	10.290000	-4.760000
	95.099440	1365.462454	10.300000	-4.890000
	95.199445	1365.451730	10.276000	-4.990000
	95.299451	1365.448155	10.286000	-4.930000
	95.399457	1365.438623	10.298000	-4.980000
	95.499462	1365.438623	10.298000	-4.980000
	95.599468	1365.433856	10.290000	-4.940000
	95.699474	1365.443389	10.278000	-4.820000
	95.799479	1365.430283	10.310000	-5.010000
	95.899485	1365.430283	10.280000	-4.900000
	95.999491	1365.437432	10.294000	-4.840000
	96.099497	1365.426708	10.294000	-4.990000
	96.199502	1365.425517	10.286000	-4.910000
	96.299508	1365.418368	10.316000	-4.960000
	96.399514	1365.410027	10.304000	-4.970000
	96.499519	1365.404070	10.282000	-4.950000
	96.599525	1365.414794	10.274000	-4.810000
	96.699531	1365.427901	10.314000	-4.790000
	96.799537	1365.427901	10.282000	-4.900000
	96.899542	1365.435051	10.286000	-4.840000
	96.999548	1365.435051	10.286000	-4.840000
	97.099554	1365.424327	10.290000	-4.990000
	97.199560	1365.427902	10.268000	-4.870000
	97.299565	1365.449352	10.300000	-4.720000
	97.399571	1365.441011	10.294000	-4.970000
	97.499577	1365.442203	10.274000	-4.890000
	97.599583	1365.443394	10.284000	-4.890000
	97.699588	1365.441011	10.322000	-4.920000
	97.799594	1365.445778	10.296000	-4.860000
	97.899600	1365.448161	10.280000	-4.880000
	97.999605	1365.455310	10.324000	-4.840000
	98.099611	1365.435055	10.306000	-5.070000
	98.199617	1365.443396	10.280000	-4.830000
	98.299623	1365.445779	10.292000	-4.880000
	98.399628	1365.429098	10.284000	-5.040000
	98.499634	1365.429098	10.284000	-5.040000
	98.599639	1365.450548	10.290000	-4.720000
	98.699646	1365.454123	10.324000	-4.870000
	98.799651	1365.452931	10.312000	-4.910000
	98.899657	1365.444590	10.286000	-4.970000
	98.999662	1365.461274	10.300000	-4.760000
	99.099668	1365.444592	10.314000	-5.040000
	99.199674	1365.432677	10.280000	-5.000000
	99.299680	1365.445785	10.314000	-4.790000
	99.399685	1365.441019	10.306000	-4.940000
	99.499691	1365.433869	10.290000	-4.960000
	99.599697	1365.439827	10.286000	-4.850000
	99.699703	1365.438636	10.300000	-4.910000
	99.799708	1365.445785	10.292000	-4.840000
	99.899714	1365.451743	10.304000	-4.850000
	99.999720	1365.443403	10.310000	-4.970000
	100.099725	1365.443403	10.310000	-4.970000
	100.199731	1365.433870	10.282000	-4.980000
	100.299737	1365.442212	10.296000	-4.830000
	100.399743	1365.442212	10.318000	-4.900000
	100.499748	1365.421956	10.270000	-5.070000
	100.599754	1365.423148	10.264000	-4.890000
	100.699760	1365.443406	10.306000	-4.730000
	100.799766	1365.443406	10.286000	-4.900000
	100.899771	1365.444597	10.282000	-4.890000
	100.999777	1365.452939	10.298000	-4.830000
	101.099782	1365.439832	10.288000	-5.010000
	101.199789	1365.438640	10.296000	-4.910000
	101.299794	1365.449365	10.294000	-4.810000
	101.399800	1365.455323	10.314000	-4.850000
	101.499805	1365.455323	10.268000	-4.900000
	101.599811	1365.470814	10.310000	-4.770000
	101.699817	1365.456516	10.300000	-5.020000
	101.799823	1365.456516	10.300000	-5.020000
	101.899828	1365.452941	10.288000	-4.930000
	101.999834	1365.467241	10.298000	-4.780000
	102.099840	1365.457709	10.302000	-4.980000
	102.199845	1365.463667	10.282000	-4.850000
	102.299851	1365.481542	10.304000	-4.750000
	102.399857	1365.474392	10.310000	-4.960000
	102.499863	1365.461285	10.268000	-5.010000
	102.599868	1365.469627	10.296000	-4.830000
	102.699874	1365.463669	10.322000	-4.950000
	102.801880	1365.445796	10.300000	-5.050000
	102.899886	1365.448179	10.278000	-4.880000
	102.999891	1365.463671	10.300000	-4.770000
	103.099897	1365.449372	10.292000	-5.020000
	103.199903	1365.446989	10.280000	-4.920000
	103.299909	1365.446989	10.280000	-4.920000
	103.399914	1365.450564	10.320000	-4.870000
	103.502920	1365.432691	10.292000	-5.050000
	103.599926	1365.435075	10.276000	-4.880000
	103.699931	1365.444607	10.310000	-4.820000
	103.799937	1365.436267	10.300000	-4.970000
	103.899943	1365.438650	10.280000	-4.880000
	103.999949	1365.455333	10.288000	-4.760000
	104.099954	1365.449375	10.296000	-4.950000
	104.199960	1365.444609	10.282000	-4.940000
	104.299966	1365.458908	10.314000	-4.780000
	104.399971	1365.449376	10.308000	-4.980000
	104.499977	1365.444610	10.290000	-4.940000
	104.599983	1365.438652	10.304000	-4.950000
	104.699988	1365.430311	10.322000	-4.970000
	104.799994	1365.426737	10.294000	-4.930000
	104.900000	1365.426737	10.294000	-4.930000
	105.000006	1365.442228	10.292000	-4.770000
	105.100011	1365.435079	10.292000	-4.960000
	105.200017	1365.423163	10.282000	-5.000000
	105.300023	1365.431505	10.292000	-4.830000
	105.400029	1365.439846	10.304000	-4.830000
	105.500034	1365.436271	10.284000	-4.930000
	105.600040	1365.451762	10.310000	-4.770000
	105.700046	1365.445805	10.306000	-4.950000
	105.800051	1365.438655	10.288000	-4.960000
	105.900057	1365.445805	10.316000	-4.840000
	106.000063	1365.444613	10.312000	-4.910000
	106.100069	1365.445805	10.282000	-4.890000
	106.200074	1365.454146	10.296000	-4.830000
	106.300080	1365.443422	10.298000	-4.990000
	106.400086	1365.449380	10.288000	-4.850000
	106.500092	1365.458913	10.302000	-4.820000
	106.600097	1365.458913	10.302000	-4.820000
	106.700103	1365.455339	10.308000	-4.930000
	106.800108	1365.445806	10.290000	-4.980000
	106.900115	1365.450573	10.284000	-4.860000
	107.000120	1365.450573	10.298000	-4.900000
	107.100126	1365.442232	10.282000	-4.970000
	107.200131	1365.443424	10.260000	-4.890000
	107.300137	1365.452956	10.322000	-4.820000
	107.400143	1365.449382	10.288000	-4.930000
	107.500149	1365.456531	10.284000	-4.840000
	107.600154	1365.458915	10.298000	-4.880000
	107.700160	1365.458915	10.280000	-4.900000
	107.800166	1365.468448	10.300000	-4.820000
	107.900172	1365.466064	10.288000	-4.920000
	108.000177	1365.464873	10.296000	-4.910000
	108.100183	1365.477981	10.290000	-4.790000
	108.200189	1365.473215	10.328000	-4.940000
	108.300194	1365.473215	10.328000	-4.940000
	108.400200	1365.469640	10.290000	-4.930000
	108.500206	1365.472023	10.278000	-4.880000
	108.600212	1365.473215	10.308000	-4.890000
	108.700217	1365.462491	10.282000	-4.990000
	108.800223	1365.472024	10.316000	-4.820000
	108.900229	1365.462491	10.328000	-4.980000
	109.000235	1365.452959	10.284000	-4.980000
	109.100240	1365.456534	10.280000	-4.870000
	109.200246	1365.454151	10.310000	-4.920000
	109.300251	1365.451767	10.288000	-4.920000
	109.400258	1365.457726	10.282000	-4.850000
	109.500263	1365.452959	10.318000	-4.940000
	109.600269	1365.438661	10.290000	-5.020000
	109.700274	1365.449386	10.302000	-4.810000
	109.800280	1365.442236	10.312000	-4.960000
	109.900286	1365.443428	10.290000	-4.890000
	109.999291	1365.443428	10.290000	-4.890000
	110.099298	1365.457728	10.314000	-4.780000
	110.199303	1365.450578	10.306000	-4.960000
	110.299309	1365.457728	10.294000	-4.840000
	110.399314	1365.463686	10.300000	-4.850000
	110.499320	1365.457728	10.282000	-4.950000
	110.599326	1365.463686	10.292000	-4.850000
	110.699332	1365.460111	10.310000	-4.930000
	110.799337	1365.444622	10.302000	-5.030000
	110.899343	1365.451771	10.272000	-4.840000
	110.999349	1365.454154	10.324000	-4.880000
	111.099355	1365.455346	10.312000	-4.890000
	111.199360	1365.452963	10.280000	-4.920000
	111.299366	1365.457729	10.300000	-4.860000
	111.399372	1365.447005	10.310000	-4.990000
	111.499377	1365.447005	10.310000	-4.990000
	111.599383	1365.457730	10.304000	-4.810000
	111.699389	1365.455347	10.316000	-4.920000
	111.799395	1365.443432	10.304000	-5.000000
	111.899400	1365.451773	10.294000	-4.830000
	111.999406	1365.460114	10.316000	-4.830000
	112.099412	1365.455348	10.298000	-4.940000
	112.199418	1365.451773	10.298000	-4.930000
	112.299423	1365.437475	10.290000	-5.020000
	112.399429	1365.441050	10.272000	-4.870000
	112.499434	1365.447008	10.322000	-4.850000
	112.599441	1365.439858	10.284000	-4.960000
	112.699446	1365.442242	10.296000	-4.880000
	112.799452	1365.452966	10.294000	-4.810000
	112.899457	1365.449391	10.278000	-4.930000
	112.999463	1365.464883	10.316000	-4.770000
	113.099469	1365.451776	10.296000	-5.010000
	113.199475	1365.451776	10.296000	-5.010000
	113.299480	1365.463692	10.280000	-4.800000
	113.399486	1365.474417	10.278000	-4.810000
	113.499492	1365.452970	10.306000	-5.080000
	113.599497	1365.457736	10.272000	-4.860000
	113.699503	1365.475611	10.294000	-4.750000
	113.799509	1365.460121	10.304000	-5.030000
	113.899515	1365.467271	10.280000	-4.840000
	113.999520	1365.474421	10.302000	-4.840000
	114.099526	1365.470846	10.290000	-4.930000
	114.199532	1365.473229	10.304000	-4.880000
	114.299538	1365.482762	10.298000	-4.820000
	114.399543	1365.477996	10.266000	-4.940000
	114.499549	1365.481571	10.292000	-4.870000
	114.599555	1365.476805	10.294000	-4.940000
	114.699561	1365.469655	10.282000	-4.960000
	114.799566	1365.462506	10.304000	-4.960000
	114.899572	1365.462506	10.304000	-4.960000
	114.999578	1365.444633	10.284000	-5.050000
	115.099583	1365.460124	10.296000	-4.770000
	115.199589	1365.475616	10.314000	-4.770000
	115.299595	1365.457743	10.282000	-5.050000
	115.399601	1365.472043	10.308000	-4.780000
	115.499606	1365.457744	10.310000	-5.020000
	115.599612	1365.458936	10.290000	-4.890000
	115.699618	1365.475619	10.310000	-4.760000
	115.799623	1365.466087	10.294000	-4.980000
	115.899629	1365.468470	10.288000	-4.880000
	115.999635	1365.462512	10.304000	-4.950000
	116.099640	1365.466087	10.288000	-4.870000
	116.199646	1365.470853	10.306000	-4.860000
	116.299652	1365.466087	10.316000	-4.940000
	116.399658	1365.461321	10.298000	-4.940000
	116.499663	1365.461321	10.298000	-4.940000
	116.599669	1365.457746	10.302000	-4.930000
	116.699675	1365.447022	10.290000	-4.990000
	116.799681	1365.454172	10.296000	-4.840000
	116.900686	1365.456555	10.316000	-4.880000
	116.999692	1365.460130	10.280000	-4.870000
	117.099698	1365.470855	10.290000	-4.810000
	117.199704	1365.443450	10.296000	-5.130000
	117.299709	1365.461325	10.282000	-4.750000
	117.399715	1365.462517	10.306000	-4.890000
	117.499721	1365.468475	10.280000	-4.850000
	117.599726	1365.481583	10.294000	-4.790000
	117.699732	1365.474434	10.294000	-4.960000
	117.799738	1365.461327	10.284000	-5.010000
	117.899744	1365.468476	10.308000	-4.840000
	117.999749	1365.462519	10.308000	-4.950000
	118.099755	1365.462519	10.308000	-4.950000
	118.199761	1365.467285	10.276000	-4.860000
	118.299767	1365.464902	10.308000	-4.920000
	118.399772	1365.467285	10.268000	-4.880000
	118.499778	1365.473243	10.322000	-4.850000
	118.599783	1365.464902	10.286000	-4.970000
	118.699790	1365.476819	10.288000	-4.800000
	118.799795	1365.458946	10.294000	-5.050000
	118.899801	1365.464904	10.294000	-4.850000
	118.999806	1365.479204	10.304000	-4.780000
	119.099812	1365.473246	10.300000	-4.950000
	119.199818	1365.479204	10.296000	-4.850000
	119.299824	1365.483970	10.316000	-4.860000
	119.399829	1365.478013	10.280000	-4.950000
	119.499835	1365.491121	10.292000	-4.790000
	119.600841	1365.472056	10.310000	-5.060000
	119.699847	1365.472056	10.310000	-5.060000
	119.799852	1365.473248	10.274000	-4.890000
	119.899858	1365.474439	10.282000	-4.890000
	119.999864	1365.468482	10.292000	-4.950000
	120.099869	1365.485165	10.282000	-4.760000
	120.200875	1365.482782	10.290000	-4.920000
	120.299881	1365.482782	10.256000	-4.900000
	120.399887	1365.494698	10.286000	-4.800000
	120.499892	1365.487549	10.296000	-4.960000
	120.601898	1365.469676	10.296000	-5.050000
	120.699904	1365.483976	10.292000	-4.780000
	120.799910	1365.482784	10.278000	-4.910000
	120.899915	1365.482784	10.274000	-4.900000
	120.999921	1365.497084	10.326000	-4.780000
	121.099926	1365.505426	10.278000	-4.830000
	121.199933	1365.505426	10.278000	-4.830000
	121.299938	1365.501851	10.268000	-4.930000
	121.399944	1365.512576	10.314000	-4.810000
	121.499949	1365.501852	10.294000	-4.990000
	121.599955	1365.520919	10.282000	-4.740000
	121.699961	1365.503046	10.306000	-5.050000
	121.799967	1365.498279	10.294000	-4.940000
	121.899972	1365.501854	10.320000	-4.870000
	121.999978	1365.489938	10.302000	-5.000000
	122.099984	1365.486364	10.284000	-4.930000
	122.199989	1365.493513	10.308000	-4.840000
	122.299995	1365.485172	10.276000	-4.970000
	122.400001	1365.507815	10.278000	-4.710000
	122.500007	1365.495899	10.308000	-5.000000
	122.600012	1365.495899	10.308000	-5.000000
	122.700018	1365.498282	10.262000	-4.880000
	122.800024	1365.506624	10.316000	-4.830000
	122.900030	1365.497091	10.302000	-4.980000
	123.050038	1365.500666	10.280000	-4.870000
	123.152044	1365.512583	10.292000	-4.800000
	123.250050	1365.501859	10.282000	-4.990000
	123.350055	1365.507817	10.284000	-4.850000
	123.450061	1365.510200	10.288000	-4.880000
	123.550067	1365.505434	10.286000	-4.940000
	123.650073	1365.503051	10.282000	-4.920000
	123.752078	1365.500667	10.316000	-4.920000
	123.850084	1365.488752	10.296000	-5.000000
	123.951090	1365.499477	10.286000	-4.810000
	124.050096	1365.494710	10.316000	-4.940000
	124.150101	1365.494710	10.316000	-4.940000
	124.250107	1365.478028	10.270000	-5.040000
	124.350112	1365.488753	10.298000	-4.810000
	124.450118	1365.493520	10.310000	-4.860000
	124.550124	1365.492328	10.290000	-4.910000
	124.650130	1365.492328	10.318000	-4.900000
	124.750135	1365.489945	10.274000	-4.920000
	124.853141	1365.503053	10.292000	-4.790000
	124.950147	1365.495904	10.284000	-4.960000
	125.050153	1365.493521	10.286000	-4.920000
	125.150158	1365.505437	10.296000	-4.800000
	125.250164	1365.504246	10.276000	-4.910000
	125.350170	1365.514971	10.294000	-4.810000
	125.450175	1365.507821	10.284000	-4.960000
	125.550181	1365.522121	10.280000	-4.780000
	125.662188	1365.526888	10.300000	-4.860000
	125.763193	1365.514972	10.276000	-5.000000
	125.850198	1365.524506	10.306000	-4.820000
	125.950204	1365.522122	10.300000	-4.920000
	126.050210	1365.522122	10.300000	-4.920000
	126.151216	1365.507823	10.282000	-5.020000
	126.251221	1365.519740	10.308000	-4.800000
	126.350227	1365.506633	10.308000	-5.010000
	126.450233	1365.504250	10.280000	-4.920000
	126.550238	1365.514975	10.318000	-4.810000
	126.650244	1365.504250	10.296000	-4.990000
	126.750250	1365.503059	10.292000	-4.910000
	126.850255	1365.499484	10.310000	-4.930000
	126.952261	1365.483994	10.278000	-5.030000
	127.100270	1365.498294	10.302000	-4.780000
	127.202276	1365.470889	10.280000	-5.130000
	127.300281	1365.483997	10.302000	-4.790000
	127.400287	1365.488764	10.304000	-4.860000
	127.499293	1365.497105	10.280000	-4.830000
	127.599298	1365.505447	10.318000	-4.830000
	127.699304	1365.505447	10.318000	-4.830000
	127.799310	1365.488765	10.290000	-5.040000
	127.899315	1365.505449	10.290000	-4.760000
	127.999321	1365.498299	10.314000	-4.960000
	128.099327	1365.501874	10.274000	-4.870000
	128.199333	1365.506641	10.310000	-4.860000
	128.299338	1365.487576	10.292000	-5.060000
	128.399344	1365.503068	10.302000	-4.770000
	128.499350	1365.499493	10.300000	-4.930000
	128.599356	1365.505451	10.282000	-4.850000
	128.699361	1365.524519	10.302000	-4.740000
	128.799367	1365.520944	10.286000	-4.930000
	128.899373	1365.519752	10.296000	-4.910000
	128.999378	1365.520944	10.304000	-4.890000
	129.099384	1365.526902	10.302000	-4.850000
	129.199390	1365.519752	10.300000	-4.960000
	129.299396	1365.519752	10.300000	-4.960000
	129.399401	1365.505453	10.266000	-5.020000
	129.499407	1365.510220	10.306000	-4.860000
	129.599413	1365.492347	10.294000	-5.050000
	129.699419	1365.514989	10.284000	-4.710000
	129.799424	1365.501882	10.304000	-5.010000
	129.899430	1365.507840	10.276000	-4.850000
	129.999435	1365.518565	10.316000	-4.810000
	130.099442	1365.501883	10.286000	-5.040000
	130.199447	1365.513800	10.290000	-4.800000
	130.299453	1365.514992	10.302000	-4.890000
	130.399458	1365.526909	10.282000	-4.800000
	130.499464	1365.523334	10.328000	-4.930000
	130.599470	1365.524525	10.286000	-4.890000
	130.699476	1365.524525	10.282000	-4.900000
	130.799481	1365.524525	10.282000	-4.900000
	130.899487	1365.513801	10.300000	-4.990000
	130.999493	1365.528101	10.274000	-4.780000
	131.099499	1365.503079	10.310000	-5.110000
	131.199504	1365.494738	10.312000	-4.970000
	131.299510	1365.500696	10.302000	-4.850000
	131.399516	1365.492355	10.274000	-4.970000
	131.499521	1365.501888	10.316000	-4.820000
	131.599527	1365.504271	10.300000	-4.880000
	131.699533	1365.526914	10.284000	-4.710000
	131.799539	1365.525723	10.308000	-4.910000
	131.899544	1365.519765	10.270000	-4.950000
	131.999550	1365.516190	10.316000	-4.930000
	132.099556	1365.514998	10.286000	-4.910000
	132.199562	1365.516190	10.316000	-4.890000
	132.299567	1365.511423	10.290000	-4.940000
	132.399573	1365.512615	10.292000	-4.890000
	132.499578	1365.512615	10.292000	-4.890000
	132.599585	1365.510232	10.306000	-4.920000
	132.699590	1365.520957	10.286000	-4.810000
	132.799596	1365.525723	10.314000	-4.860000
	132.899601	1365.522148	10.288000	-4.930000
	132.999607	1365.532874	10.316000	-4.810000
	133.099613	1365.518575	10.294000	-5.020000
	133.199619	1365.529300	10.278000	-4.810000
	133.299624	1365.518575	10.288000	-4.990000
	133.399630	1365.532876	10.278000	-4.780000
	133.499636	1365.520960	10.304000	-5.000000
	133.599641	1365.517385	10.290000	-4.930000
	133.699647	1365.523343	10.320000	-4.850000
	133.799653	1365.518577	10.288000	-4.940000
	133.899659	1365.540028	10.304000	-4.720000
	133.999664	1365.529304	10.294000	-4.990000
	134.099670	1365.540029	10.314000	-4.810000
	134.199676	1365.540029	10.314000	-4.810000
	134.299682	1365.528113	10.302000	-5.000000
	134.399687	1365.526921	10.290000	-4.910000
	134.499693	1365.531688	10.306000	-4.860000
	134.599699	1365.517389	10.276000	-5.020000
	134.699705	1365.534073	10.314000	-4.760000
	134.799710	1365.522157	10.314000	-5.000000
	134.899716	1365.523348	10.280000	-4.890000
	134.999722	1365.520965	10.326000	-4.920000
	135.099727	1365.524540	10.268000	-4.870000
	135.199733	1365.530498	10.300000	-4.850000
	135.299739	1365.520965	10.284000	-4.980000
	135.399745	1365.520965	10.278000	-4.900000
	135.499750	1365.520965	10.278000	-4.900000
	135.599756	1365.525732	10.298000	-4.860000
	135.699762	1365.518582	10.280000	-4.960000
	135.799767	1365.530499	10.296000	-4.800000
	135.899773	1365.511434	10.302000	-5.060000
	135.999779	1365.523351	10.308000	-4.800000
	136.099784	1365.513818	10.298000	-4.980000
	136.199790	1365.512627	10.300000	-4.910000
	136.299796	1365.503094	10.304000	-4.980000
	136.399802	1365.516202	10.296000	-4.790000
	136.499807	1365.515011	10.300000	-4.910000
	136.599813	1365.499520	10.290000	-5.030000
	136.699819	1365.504287	10.318000	-4.860000
	136.799825	1365.506670	10.278000	-4.880000
	136.899830	1365.499521	10.314000	-4.960000
	136.999836	1365.491180	10.300000	-4.970000
	137.099842	1365.497138	10.296000	-4.850000
	137.199847	1365.497138	10.296000	-4.850000
	137.299853	1365.497138	10.298000	-4.900000
	137.399859	1365.491180	10.282000	-4.950000
	137.499865	1365.497138	10.310000	-4.850000
	137.599870	1365.493563	10.294000	-4.930000
	137.699876	1365.497138	10.294000	-4.870000
	137.799882	1365.487605	10.290000	-4.980000
	137.899888	1365.507864	10.294000	-4.730000
	137.999893	1365.509056	10.310000	-4.890000
	138.099899	1365.517398	10.280000	-4.830000
	138.199904	1365.510248	10.314000	-4.960000
	138.299911	1365.513823	10.280000	-4.870000
	138.399916	1365.517398	10.310000	-4.870000
	138.499922	1365.519781	10.288000	-4.880000
	138.599927	1365.512632	10.302000	-4.960000
	138.699933	1365.510248	10.286000	-4.920000
	138.799939	1365.531699	10.278000	-4.720000
	138.899945	1365.531699	10.278000	-4.720000
	138.999950	1365.517400	10.308000	-5.020000
	139.099956	1365.522167	10.290000	-4.860000
	139.199962	1365.517401	10.300000	-4.940000
	139.299968	1365.519784	10.268000	-4.880000
	139.399973	1365.512634	10.316000	-4.960000
	139.499979	1365.500718	10.268000	-5.000000
	139.599985	1365.509060	10.292000	-4.830000
	139.699990	1365.491187	10.290000	-5.050000
	139.799996	1365.504295	10.306000	-4.790000
	139.900002	1365.494762	10.286000	-4.980000
	140.000008	1365.505487	10.286000	-4.810000
	140.100013	1365.504296	10.318000	-4.910000
	140.200019	1365.506679	10.280000	-4.880000
	140.300025	1365.492380	10.306000	-5.020000
	140.400031	1365.495955	10.282000	-4.870000
	140.500036	1365.501913	10.314000	-4.850000
	140.600042	1365.501913	10.314000	-4.850000
	140.700047	1365.499530	10.288000	-4.920000
	140.800053	1365.519789	10.316000	-4.730000
	140.900059	1365.517406	10.300000	-4.920000
	141.000065	1365.532898	10.298000	-4.770000
	141.100070	1365.525748	10.308000	-4.960000
	141.200076	1365.532899	10.268000	-4.840000
	141.300082	1365.528132	10.302000	-4.940000
	141.400088	1365.538857	10.274000	-4.810000
	141.500093	1365.546007	10.286000	-4.840000
	141.600099	1365.528134	10.274000	-5.050000
	141.700105	1365.542434	10.322000	-4.780000
	141.800110	1365.535284	10.282000	-4.960000
	141.900116	1365.546010	10.298000	-4.810000
	142.000122	1365.537668	10.300000	-4.970000
	142.100128	1365.537668	10.300000	-4.970000
	142.200133	1365.543627	10.280000	-4.850000
	142.300139	1365.536477	10.288000	-4.960000
	142.400145	1365.534094	10.276000	-4.920000
	142.500151	1365.530519	10.312000	-4.930000
	142.600156	1365.528135	10.264000	-4.920000
	142.700162	1365.536477	10.310000	-4.830000
	142.800168	1365.529327	10.286000	-4.960000
	142.900174	1365.541244	10.310000	-4.800000
	143.000179	1365.522179	10.294000	-5.060000
	143.100185	1365.534096	10.288000	-4.800000
	143.200191	1365.524563	10.304000	-4.980000
	143.300196	1365.535288	10.264000	-4.810000
	143.400202	1365.528139	10.320000	-4.960000
	143.500208	1365.530522	10.296000	-4.880000
	143.600214	1365.538864	10.312000	-4.830000
	143.700219	1365.538864	10.312000	-4.830000
	143.800225	1365.536481	10.282000	-4.920000
	143.900231	1365.538864	10.304000	-4.880000
	144.000237	1365.547206	10.270000	-4.830000
	144.100242	1365.553164	10.314000	-4.850000
	144.200248	1365.544823	10.278000	-4.970000
	144.300253	1365.550781	10.318000	-4.850000
	144.400259	1365.547206	10.278000	-4.930000
	144.500265	1365.547206	10.302000	-4.900000
	144.600271	1365.550781	10.278000	-4.870000
	144.700276	1365.563890	10.326000	-4.790000
	144.800282	1365.553166	10.270000	-4.990000
	144.899288	1365.559124	10.310000	-4.850000
	144.999293	1365.548399	10.282000	-4.990000
	145.099299	1365.553166	10.302000	-4.860000
	145.199305	1365.546016	10.278000	-4.960000
	145.299311	1365.554358	10.322000	-4.830000
	145.399316	1365.554358	10.322000	-4.830000
	145.499322	1365.544825	10.290000	-4.980000
	145.599328	1365.559126	10.306000	-4.780000
	145.699334	1365.531720	10.284000	-5.130000
	145.799339	1365.546021	10.296000	-4.780000
	145.899345	1365.542446	10.290000	-4.930000
	145.999351	1365.555555	10.290000	-4.790000
	146.099357	1365.544830	10.280000	-4.990000
	146.199362	1365.549597	10.288000	-4.860000
	146.299368	1365.541255	10.274000	-4.970000
	146.399374	1365.537680	10.292000	-4.930000
	146.499379	1365.526956	10.294000	-4.990000
	146.599385	1365.541256	10.296000	-4.780000
	146.699391	1365.521000	10.288000	-5.070000
	146.799397	1365.541259	10.298000	-4.730000
	146.899402	1365.525768	10.280000	-5.030000
	146.999408	1365.540069	10.296000	-4.780000
	147.099414	1365.540069	10.296000	-4.780000
	147.199419	1365.534111	10.296000	-4.950000
	147.299425	1365.546028	10.282000	-4.800000
	147.399431	1365.543644	10.286000	-4.920000
	147.499436	1365.547219	10.286000	-4.870000
	147.599442	1365.541261	10.296000	-4.950000
	147.699448	1365.550795	10.286000	-4.820000
	147.799454	1365.547220	10.294000	-4.930000
	147.899459	1365.534112	10.276000	-5.010000
	147.999465	1365.532921	10.304000	-4.910000
	148.099471	1365.553180	10.270000	-4.730000
	148.199477	1365.547222	10.312000	-4.950000
	148.299482	1365.563906	10.278000	-4.760000
	148.399488	1365.553182	10.304000	-4.990000
	148.499494	1365.548415	10.270000	-4.940000
	148.599499	1365.529350	10.316000	-5.060000
	148.699505	1365.536500	10.292000	-4.840000
	148.799511	1365.536500	10.292000	-4.840000
	148.899517	1365.540075	10.308000	-4.870000
	148.999522	1365.548417	10.278000	-4.830000
	149.099528	1365.549608	10.316000	-4.890000
	149.199534	1365.550800	10.278000	-4.890000
	149.299540	1365.548417	10.300000	-4.920000
	149.399545	1365.549608	10.272000	-4.890000
	149.499551	1365.544842	10.308000	-4.940000
	149.599556	1365.525776	10.266000	-5.060000
	149.699563	1365.534118	10.288000	-4.830000
	149.799568	1365.531735	10.286000	-4.920000
	149.899574	1365.551995	10.286000	-4.730000
	149.999579	1365.543653	10.296000	-4.970000
	150.099585	1365.548420	10.268000	-4.860000
	150.199591	1365.556762	10.298000	-4.830000
	150.299597	1365.562720	10.284000	-4.850000
	150.399602	1365.562720	10.284000	-4.850000
	150.499608	1365.554379	10.316000	-4.970000
	150.599614	1365.557954	10.272000	-4.870000
	150.699620	1365.559146	10.308000	-4.890000
	150.799625	1365.560337	10.286000	-4.890000
	150.899631	1365.562721	10.300000	-4.880000
	150.999637	1365.573446	10.282000	-4.810000
	151.099642	1365.568679	10.316000	-4.940000
	151.199648	1365.557955	10.282000	-4.990000
	151.299654	1365.566297	10.290000	-4.830000
	151.399660	1365.568680	10.290000	-4.880000
	151.499665	1365.567488	10.278000	-4.910000
	151.599671	1365.561530	10.306000	-4.950000
	151.699677	1365.561530	10.270000	-4.900000
	151.799683	1365.565105	10.308000	-4.870000
	151.899688	1365.562722	10.276000	-4.920000
	151.999694	1365.562722	10.276000	-4.920000
	152.099699	1365.559147	10.296000	-4.930000
	152.199706	1365.542464	10.280000	-5.040000
	152.299711	1365.554382	10.308000	-4.800000
	152.399717	1365.542465	10.276000	-5.000000
	152.499722	1365.554382	10.296000	-4.800000
	152.599728	1365.550808	10.292000	-4.930000
	152.699734	1365.567492	10.256000	-4.760000
	152.799740	1365.560342	10.320000	-4.960000
	152.899745	1365.560342	10.288000	-4.900000
	152.999751	1365.567492	10.314000	-4.840000
	153.099757	1365.566301	10.268000	-4.910000
	153.199763	1365.584177	10.306000	-4.750000
	153.299768	1365.590136	10.266000	-4.850000
	153.399774	1365.591327	10.292000	-4.890000
	153.499780	1365.586561	10.274000	-4.940000
	153.599785	1365.596095	10.298000	-4.820000
	153.706792	1365.596095	10.298000	-4.820000
	153.799797	1365.567496	10.292000	-5.140000
	153.899803	1365.584181	10.298000	-4.760000
	153.999808	1365.571073	10.294000	-5.010000
	154.099814	1365.565115	10.298000	-4.950000
	154.199820	1365.562731	10.296000	-4.920000
	154.299826	1365.556773	10.272000	-4.950000
	154.399831	1365.566307	10.314000	-4.820000
	154.499837	1365.559157	10.274000	-4.960000
	154.599843	1365.559157	10.308000	-4.900000
	154.699849	1365.547241	10.288000	-5.000000
	154.799854	1365.559158	10.300000	-4.800000
	154.899860	1365.553200	10.278000	-4.950000
	154.999866	1365.557966	10.290000	-4.860000
	155.099871	1365.548433	10.300000	-4.980000
	155.199877	1365.559159	10.288000	-4.810000
	155.299883	1365.556775	10.300000	-4.920000
	155.399889	1365.556775	10.300000	-4.920000
	155.499894	1365.556775	10.280000	-4.900000
	155.599900	1365.555584	10.302000	-4.910000
	155.699906	1365.562734	10.270000	-4.840000
	155.801911	1365.569884	10.296000	-4.840000
	155.899917	1365.561543	10.264000	-4.970000
	156.000923	1365.577035	10.300000	-4.770000
	156.099928	1365.578227	10.300000	-4.890000
	156.202934	1365.599679	10.274000	-4.720000
	156.299940	1365.591338	10.298000	-4.970000
	156.399946	1365.584187	10.268000	-4.960000
	156.499951	1365.594913	10.302000	-4.810000
	156.600957	1365.580613	10.290000	-5.020000
	156.702963	1365.594915	10.278000	-4.780000
	156.799969	1365.586573	10.286000	-4.970000
	156.899974	1365.586573	10.286000	-4.970000
	156.999980	1365.580614	10.284000	-4.950000
	157.099986	1365.578231	10.286000	-4.920000
	157.199991	1365.578231	10.270000	-4.900000
	157.299997	1365.574656	10.312000	-4.930000
	157.400003	1365.557973	10.280000	-5.040000
	157.500009	1365.575850	10.288000	-4.750000
	157.600014	1365.568700	10.298000	-4.960000
	157.705020	1365.584193	10.278000	-4.770000
	157.800026	1365.577043	10.308000	-4.960000
	157.900032	1365.584193	10.300000	-4.840000
	158.000037	1365.581810	10.310000	-4.920000
	158.100043	1365.569893	10.286000	-5.000000
	158.200048	1365.581810	10.290000	-4.800000
	158.300055	1365.566319	10.284000	-5.030000
	158.400060	1365.568703	10.282000	-4.880000
	158.500066	1365.568703	10.282000	-4.880000
	158.600071	1365.562744	10.284000	-4.950000
	158.700077	1365.549637	10.276000	-5.010000
	158.800083	1365.565129	10.286000	-4.770000
	158.900089	1365.559171	10.298000	-4.950000
	159.000094	1365.557979	10.286000	-4.910000
	159.100100	1365.567513	10.300000	-4.820000
	159.200106	1365.563938	10.302000	-4.930000
	159.300112	1365.567513	10.306000	-4.870000
	159.405118	1365.565130	10.274000	-4.920000
	159.500123	1365.577047	10.290000	-4.800000
	159.600129	1365.584197	10.300000	-4.840000
	159.700134	1365.588964	10.294000	-4.860000
	159.800140	1365.586581	10.318000	-4.920000
	159.900146	1365.586581	10.318000	-4.920000
	160.000152	1365.565132	10.282000	-5.080000
	160.100157	1365.563940	10.304000	-4.910000
	160.200163	1365.566324	10.302000	-4.880000
	160.300169	1365.555599	10.282000	-4.990000
	160.400175	1365.559174	10.294000	-4.870000
	160.500180	1365.547258	10.282000	-5.000000
	160.600186	1365.569901	10.306000	-4.710000
	160.700191	1365.569901	10.300000	-4.900000
	160.800197	1365.573476	10.278000	-4.870000
	160.900203	1365.563943	10.300000	-4.980000
	161.000209	1365.560368	10.274000	-4.930000
	161.100214	1365.571094	10.306000	-4.810000
	161.200220	1365.560369	10.294000	-4.990000
	161.300226	1365.584205	10.282000	-4.700000
	161.400232	1365.584205	10.282000	-4.700000
	161.500237	1365.578246	10.318000	-4.950000
	161.600243	1365.571096	10.272000	-4.960000
	161.700249	1365.571096	10.300000	-4.900000
	161.800254	1365.568713	10.272000	-4.920000
	161.900260	1365.575863	10.296000	-4.840000
	162.000266	1365.573480	10.300000	-4.920000
	162.100272	1365.572288	10.278000	-4.910000
	162.200277	1365.573480	10.298000	-4.890000
	162.300283	1365.586589	10.260000	-4.790000
	162.399289	1365.583014	10.292000	-4.930000
	162.499295	1365.573481	10.286000	-4.980000
	162.599300	1365.585398	10.306000	-4.800000
	162.699306	1365.566332	10.298000	-5.060000
	162.799312	1365.573483	10.286000	-4.840000
	162.899317	1365.563949	10.282000	-4.980000
	162.999323	1365.563949	10.282000	-4.980000
	163.099329	1365.568716	10.290000	-4.860000
	163.199335	1365.569908	10.302000	-4.890000
	163.299340	1365.567525	10.282000	-4.920000
	163.399346	1365.568716	10.304000	-4.890000
	163.499352	1365.550842	10.294000	-5.050000
	163.599358	1365.571102	10.298000	-4.730000
	163.699363	1365.568719	10.300000	-4.920000
	163.810369	1365.556802	10.296000	-5.000000
	163.899374	1365.586598	10.296000	-4.650000
	163.999380	1365.578256	10.292000	-4.970000
	164.099386	1365.581831	10.284000	-4.870000
	164.199392	1365.586598	10.306000	-4.860000
	164.299397	1365.586598	10.306000	-4.860000
	164.399403	1365.588981	10.292000	-4.880000
	164.499409	1365.603283	10.302000	-4.780000
	164.599415	1365.596132	10.316000	-4.960000
	164.699420	1365.605666	10.284000	-4.820000
	164.799426	1365.600900	10.314000	-4.940000
	164.899432	1365.608050	10.276000	-4.840000
	164.999437	1365.610434	10.294000	-4.880000
	165.099443	1365.606859	10.278000	-4.930000
	165.199449	1365.631887	10.290000	-4.690000
	165.299455	1365.622353	10.272000	-4.980000
	165.399460	1365.623545	10.298000	-4.890000
	165.499466	1365.621162	10.288000	-4.920000
	165.599472	1365.615203	10.302000	-4.950000
	165.699478	1365.598520	10.318000	-5.040000
	165.799483	1365.592562	10.298000	-4.950000
	165.899489	1365.592562	10.298000	-4.950000
	165.999495	1365.585412	10.306000	-4.960000
	166.099501	1365.574687	10.270000	-4.990000
	166.199506	1365.593755	10.314000	-4.740000
	166.299512	1365.584222	10.298000	-4.980000
	166.399518	1365.593756	10.322000	-4.820000
	166.499523	1365.587797	10.272000	-4.950000
	166.599529	1365.597331	10.282000	-4.820000
	166.699535	1365.592564	10.300000	-4.940000
	166.799541	1365.600907	10.282000	-4.830000
	166.899546	1365.608057	10.318000	-4.840000
	166.999552	1365.610441	10.274000	-4.880000
	167.099558	1365.628318	10.278000	-4.750000
	167.199564	1365.609251	10.294000	-5.060000
	167.299569	1365.616402	10.274000	-4.840000
	167.399575	1365.594952	10.284000	-5.080000
	167.499580	1365.594952	10.284000	-5.080000
	167.599586	1365.603294	10.268000	-4.830000
	167.699592	1365.611637	10.292000	-4.830000
	167.799598	1365.608062	10.290000	-4.930000
	167.899603	1365.614020	10.306000	-4.850000
	167.999609	1365.597337	10.270000	-5.040000
	168.099615	1365.602104	10.278000	-4.860000
	168.199621	1365.588996	10.288000	-5.010000
	168.299626	1365.592571	10.278000	-4.870000
	168.399632	1365.605680	10.300000	-4.790000
	168.499638	1365.599722	10.276000	-4.950000
	168.599643	1365.604489	10.290000	-4.860000
	168.699649	1365.583040	10.302000	-5.080000
	168.799655	1365.593765	10.286000	-4.810000
	168.899661	1365.590190	10.294000	-4.930000
	168.999666	1365.574699	10.298000	-5.030000
	169.099672	1365.574699	10.298000	-5.030000
	169.199678	1365.590192	10.298000	-4.770000
	169.299684	1365.593767	10.288000	-4.870000
	169.399689	1365.597342	10.282000	-4.870000
	169.499695	1365.604493	10.292000	-4.840000
	169.599700	1365.600917	10.272000	-4.930000
	169.699707	1365.606876	10.302000	-4.850000
	169.799712	1365.599726	10.296000	-4.960000
	169.899718	1365.597343	10.264000	-4.920000
	169.999723	1365.594959	10.308000	-4.920000
	170.099729	1365.591384	10.260000	-4.930000
	170.199735	1365.603302	10.294000	-4.800000
	170.299741	1365.592577	10.298000	-4.990000
	170.399746	1365.598535	10.288000	-4.850000
	170.499752	1365.591385	10.308000	-4.960000
	170.599758	1365.581852	10.280000	-4.980000
	170.699764	1365.594961	10.278000	-4.790000
	170.799769	1365.594961	10.278000	-4.790000
	170.899775	1365.596153	10.306000	-4.890000
	170.999781	1365.586620	10.294000	-4.980000
	171.099786	1365.587811	10.304000	-4.890000
	171.199792	1365.583045	10.294000	-4.940000
	171.299798	1365.587811	10.288000	-4.860000
	171.399804	1365.585428	10.330000	-4.920000
	171.499809	1365.575895	10.268000	-4.980000
	171.599815	1365.586620	10.290000	-4.810000
	171.699821	1365.585429	10.298000	-4.910000
	171.799827	1365.590196	10.288000	-4.860000
	171.899832	1365.593771	10.298000	-4.870000
	171.999838	1365.587812	10.286000	-4.950000
	172.099844	1365.599730	10.296000	-4.800000
	172.199849	1365.593772	10.314000	-4.950000
	172.299855	1365.593772	10.268000	-4.900000
	172.399861	1365.603306	10.290000	-4.820000
	172.499866	1365.603306	10.290000	-4.820000
	172.599872	1365.584239	10.312000	-5.060000
	172.699878	1365.586623	10.266000	-4.880000
	172.799884	1365.589006	10.314000	-4.880000
	172.899889	1365.567557	10.306000	-5.080000
	172.999895	1365.581858	10.276000	-4.780000
	173.099901	1365.581858	10.282000	-4.900000
	173.199906	1365.569942	10.268000	-5.000000
	173.299912	1365.585435	10.298000	-4.770000
	173.399918	1365.586626	10.310000	-4.890000
	173.499924	1365.600927	10.276000	-4.780000
	173.599929	1365.606886	10.316000	-4.850000
	173.699935	1365.590203	10.300000	-5.040000
	173.799941	1365.602121	10.292000	-4.800000
	173.899947	1365.602121	10.292000	-4.800000
	173.999952	1365.596162	10.316000	-4.950000
	174.099958	1365.594970	10.272000	-4.910000
	174.199964	1365.605696	10.302000	-4.810000
	174.299970	1365.594971	10.308000	-4.990000
	174.399975	1365.597355	10.278000	-4.880000
	174.499981	1365.612848	10.296000	-4.770000
	174.599987	1365.604506	10.288000	-4.970000
	174.699992	1365.615232	10.288000	-4.810000
	174.799998	1365.612848	10.328000	-4.920000
	174.900004	1365.627150	10.270000	-4.780000
	175.000010	1365.628342	10.302000	-4.890000
	175.100015	1365.617616	10.294000	-4.990000
	175.200021	1365.622383	10.282000	-4.860000
	175.300026	1365.609275	10.298000	-5.010000
	175.400033	1365.611658	10.280000	-4.880000
	175.500038	1365.611658	10.280000	-4.880000
	175.600044	1365.616425	10.280000	-4.860000
	175.700049	1365.609275	10.306000	-4.960000
	175.800055	1365.596167	10.264000	-5.010000
	175.900061	1365.590208	10.308000	-4.950000
	176.000067	1365.597359	10.300000	-4.840000
	176.100072	1365.600934	10.266000	-4.870000
	176.200078	1365.612852	10.302000	-4.800000
	176.300084	1365.594977	10.274000	-5.050000
	176.401090	1365.622389	10.288000	-4.670000
	176.500095	1365.618814	10.294000	-4.930000
	176.600101	1365.614047	10.284000	-4.940000
	176.700107	1365.629540	10.308000	-4.770000
	176.800112	1365.615240	10.286000	-5.020000
	176.900118	1365.611665	10.280000	-4.930000
	177.000124	1365.590216	10.306000	-5.080000
	177.100130	1365.581874	10.274000	-4.970000
	177.200135	1365.581874	10.274000	-4.970000
	177.300141	1365.586641	10.298000	-4.860000
	177.400147	1365.590216	10.314000	-4.870000
	177.500153	1365.590216	10.282000	-4.900000
	177.600158	1365.594983	10.296000	-4.860000
	177.700164	1365.589025	10.304000	-4.950000
	177.800169	1365.581875	10.278000	-4.960000
	177.900176	1365.592600	10.288000	-4.810000
	178.000181	1365.584259	10.292000	-4.970000
	178.100187	1365.590217	10.296000	-4.850000
	178.200192	1365.587834	10.308000	-4.920000
	178.300198	1365.580684	10.312000	-4.960000
	178.400204	1365.594985	10.290000	-4.780000
	178.500210	1365.594985	10.312000	-4.900000
	178.600215	1365.602135	10.280000	-4.840000
	178.700221	1365.610478	10.306000	-4.830000
	178.800227	1365.610478	10.306000	-4.830000
	178.900232	1365.603328	10.306000	-4.960000
	179.000238	1365.608094	10.272000	-4.860000
	179.100244	1365.629547	10.300000	-4.720000
	179.200250	1365.610481	10.294000	-5.060000
	179.300255	1365.627166	10.286000	-4.760000
	179.400261	1365.614057	10.290000	-5.010000
	179.500267	1365.617633	10.272000	-4.870000
	179.600273	1365.629550	10.296000	-4.800000
	179.700278	1365.629550	10.300000	-4.900000
	179.800284	1365.625975	10.280000	-4.930000
	179.899290	1365.630742	10.294000	-4.860000
	179.999295	1365.629550	10.294000	-4.910000
	180.099301	1365.630742	10.274000	-4.890000
	180.199307	1365.641468	10.304000	-4.810000
	180.299313	1365.641468	10.304000	-4.810000
	180.399318	1365.640277	10.294000	-4.910000
	180.499324	1365.646235	10.266000	-4.850000
	180.599330	1365.651002	10.316000	-4.860000
	180.699336	1365.624786	10.288000	-5.120000
	180.799341	1365.627170	10.286000	-4.880000
	180.899347	1365.611678	10.314000	-5.030000
	180.999352	1365.610486	10.286000	-4.910000
	181.099359	1365.616445	10.294000	-4.850000
	181.199364	1365.620020	10.278000	-4.870000
	181.299370	1365.611678	10.270000	-4.970000
	181.399375	1365.623596	10.308000	-4.800000
	181.499381	1365.608105	10.294000	-5.030000
	181.599387	1365.615255	10.278000	-4.840000
	181.699393	1365.611680	10.294000	-4.930000
	181.799398	1365.608105	10.302000	-4.930000
	181.899404	1365.616447	10.310000	-4.830000
	181.999410	1365.616447	10.310000	-4.830000
	182.099416	1365.606914	10.300000	-4.980000
	182.199421	1365.629558	10.282000	-4.710000
	182.299427	1365.633133	10.292000	-4.870000
	182.399433	1365.637900	10.304000	-4.860000
	182.499438	1365.615259	10.280000	-5.090000
	182.599444	1365.622410	10.282000	-4.840000
	182.699450	1365.617643	10.312000	-4.940000
	182.799456	1365.622410	10.274000	-4.860000
	182.899461	1365.643863	10.284000	-4.720000
	182.999467	1365.640287	10.290000	-4.930000
	183.099473	1365.642671	10.278000	-4.880000
	183.199479	1365.646246	10.294000	-4.870000
	183.299484	1365.639096	10.272000	-4.960000
	183.399490	1365.645055	10.292000	-4.850000
	183.499496	1365.651014	10.306000	-4.850000
	183.599501	1365.651014	10.306000	-4.850000
	183.699507	1365.636713	10.278000	-5.020000
	183.799513	1365.656975	10.298000	-4.730000
	183.899518	1365.649824	10.288000	-4.960000
	183.999524	1365.631949	10.286000	-5.050000
	184.149533	1365.636716	10.314000	-4.860000
	184.249538	1365.621224	10.300000	-5.030000
	184.349544	1365.617649	10.278000	-4.930000
	184.449550	1365.622416	10.306000	-4.860000
	184.549556	1365.614074	10.286000	-4.970000
	184.649561	1365.618841	10.272000	-4.860000
	184.749567	1365.631951	10.304000	-4.790000
	184.849573	1365.600969	10.294000	-5.160000
	184.949579	1365.608119	10.282000	-4.840000
	185.049584	1365.609311	10.308000	-4.890000
	185.149590	1365.603353	10.294000	-4.950000
	185.249596	1365.618846	10.288000	-4.770000
	185.349601	1365.605737	10.310000	-5.010000
	185.449607	1365.605737	10.310000	-5.010000
	185.549613	1365.609313	10.278000	-4.870000
	185.649619	1365.618847	10.294000	-4.820000
	185.749624	1365.622422	10.296000	-4.870000
	185.849630	1365.622422	10.280000	-4.900000
	185.949636	1365.629573	10.310000	-4.840000
	186.049642	1365.616464	10.278000	-5.010000
	186.149647	1365.628382	10.284000	-4.800000
	186.249653	1365.625998	10.318000	-4.920000
	186.349658	1365.620040	10.294000	-4.950000
	186.449664	1365.623615	10.292000	-4.870000
	186.549670	1365.629574	10.300000	-4.850000
	186.649676	1365.610507	10.290000	-5.060000
	186.749681	1365.614083	10.282000	-4.870000
	186.849687	1365.615274	10.298000	-4.890000
	186.949693	1365.621233	10.282000	-4.850000
	187.049699	1365.629575	10.308000	-4.830000
	187.149704	1365.629575	10.308000	-4.830000
	187.249710	1365.620042	10.276000	-4.980000
	187.349716	1365.634343	10.288000	-4.780000
	187.449721	1365.636727	10.306000	-4.880000
	187.549727	1365.629577	10.304000	-4.960000
	187.649733	1365.628385	10.276000	-4.910000
	187.749739	1365.637919	10.292000	-4.820000
	187.849744	1365.640303	10.302000	-4.880000
	187.949750	1365.636727	10.294000	-4.930000
	188.049756	1365.617661	10.302000	-5.060000
	188.149762	1365.612894	10.280000	-4.940000
	188.249767	1365.620044	10.296000	-4.840000
	188.349773	1365.611703	10.300000	-4.970000
	188.449779	1365.618853	10.284000	-4.840000
	188.549785	1365.616470	10.294000	-4.920000
	188.649790	1365.616470	10.294000	-4.920000
	188.749796	1365.598595	10.284000	-5.050000
	188.849802	1365.609321	10.274000	-4.810000
	188.951807	1365.608129	10.320000	-4.910000
	189.049813	1365.600979	10.268000	-4.960000
	189.149819	1365.612897	10.304000	-4.800000
	189.249825	1365.621239	10.308000	-4.830000
	189.349830	1365.611705	10.280000	-4.980000
	189.449836	1365.626007	10.300000	-4.780000
	189.549842	1365.618857	10.306000	-4.960000
	189.649848	1365.604557	10.302000	-5.020000
	189.749853	1365.604557	10.298000	-4.900000
	189.849859	1365.596215	10.302000	-4.970000
	189.949864	1365.598598	10.276000	-4.880000
	190.049870	1365.598598	10.276000	-4.880000
	190.149876	1365.624819	10.294000	-4.680000
	190.249882	1365.623627	10.286000	-4.910000
	190.349887	1365.626010	10.290000	-4.880000
	190.449893	1365.627202	10.290000	-4.890000
	190.549899	1365.617669	10.310000	-4.980000
	190.649905	1365.630778	10.280000	-4.790000
	190.749910	1365.631970	10.316000	-4.890000
	190.849916	1365.617670	10.288000	-5.020000
	190.949922	1365.627204	10.280000	-4.820000
	191.049928	1365.642697	10.330000	-4.770000
	191.149933	1365.629589	10.288000	-5.010000
	191.249939	1365.646274	10.290000	-4.760000
	191.349945	1365.643891	10.326000	-4.920000
	191.449950	1365.633165	10.294000	-4.990000
	191.502954	1365.633165	10.294000	-4.990000
	191.649962	1365.622440	10.270000	-4.990000
	191.749968	1365.633166	10.292000	-4.810000
	191.849973	1365.622441	10.316000	-4.990000
	191.949979	1365.617674	10.288000	-4.940000
	192.050985	1365.617674	10.292000	-4.900000
	192.151990	1365.617674	10.280000	-4.900000
	192.249996	1365.620057	10.290000	-4.880000
	192.350002	1365.621249	10.312000	-4.890000
	192.450007	1365.612907	10.288000	-4.970000
	192.550014	1365.612907	10.288000	-4.970000
	192.650019	1365.621250	10.292000	-4.830000
	192.750025	1365.614099	10.304000	-4.960000
	192.850030	1365.595033	10.302000	-5.060000
	192.950036	1365.603375	10.298000	-4.830000
	193.050042	1365.611718	10.292000	-4.830000
	193.150048	1365.616485	10.308000	-4.860000
	193.254054	1365.615293	10.298000	-4.910000
	193.350059	1365.618868	10.284000	-4.870000
	193.450065	1365.618868	10.284000	-4.870000
	193.550071	1365.614101	10.296000	-4.940000
	193.650076	1365.610526	10.308000	-4.930000
	193.750082	1365.606951	10.294000	-4.930000
	193.850088	1365.603376	10.278000	-4.930000
	193.950093	1365.616485	10.292000	-4.790000
	194.050099	1365.608144	10.330000	-4.970000
	194.150105	1365.599802	10.300000	-4.970000
	194.250111	1365.602185	10.290000	-4.880000
	194.350116	1365.610527	10.302000	-4.830000
	194.450122	1365.600994	10.310000	-4.980000
	194.550128	1365.591461	10.308000	-4.980000
	194.650134	1365.591461	10.308000	-4.980000
	194.750139	1365.604570	10.280000	-4.790000
	194.850145	1365.616488	10.274000	-4.800000
	195.000154	1365.615296	10.296000	-4.910000
	195.100159	1365.605763	10.288000	-4.980000
	195.200165	1365.595038	10.292000	-4.990000
	195.300170	1365.592654	10.298000	-4.920000
	195.400177	1365.620066	10.300000	-4.670000
	195.500182	1365.610533	10.296000	-4.980000
	195.600188	1365.610533	10.296000	-4.980000
	195.700193	1365.608149	10.288000	-4.920000
	195.800199	1365.598616	10.292000	-4.980000
	195.900205	1365.605766	10.296000	-4.840000
	196.000211	1365.611725	10.316000	-4.850000
	196.100216	1365.604575	10.304000	-4.960000
	196.150219	1365.614109	10.304000	-4.820000
	196.300228	1365.617684	10.292000	-4.870000
	196.400234	1365.620068	10.296000	-4.880000
	196.500239	1365.616493	10.306000	-4.930000
	196.550242	1365.616493	10.306000	-4.930000
	196.700251	1365.614109	10.300000	-4.920000
	196.800256	1365.601001	10.296000	-5.010000
	196.900262	1365.601001	10.284000	-4.900000
	197.000268	1365.609343	10.270000	-4.830000
	197.100274	1365.618877	10.302000	-4.820000
	197.200279	1365.617685	10.312000	-4.910000
	197.300285	1365.609344	10.302000	-4.970000
	197.399291	1365.633180	10.272000	-4.700000
	197.500297	1365.641523	10.286000	-4.830000
	197.599302	1365.641523	10.286000	-4.830000
	197.699308	1365.634372	10.324000	-4.960000
	197.799314	1365.620072	10.296000	-5.020000
	197.899319	1365.614114	10.276000	-4.950000
	197.999325	1365.606963	10.290000	-4.960000
	198.099331	1365.615306	10.300000	-4.830000
	198.199337	1365.622456	10.304000	-4.840000
	198.299342	1365.611731	10.286000	-4.990000
	198.399348	1365.601006	10.288000	-4.990000
	198.499353	1365.602198	10.304000	-4.890000
	198.599360	1365.604581	10.298000	-4.880000
	198.699365	1365.604581	10.298000	-4.880000
	198.799371	1365.601006	10.306000	-4.930000
	198.899376	1365.586706	10.318000	-5.020000
	198.999382	1365.581940	10.294000	-4.940000
	199.099388	1365.593857	10.272000	-4.800000
	199.204394	1365.610542	10.294000	-4.760000
	199.299399	1365.618884	10.322000	-4.830000
	199.404405	1365.616501	10.312000	-4.920000
	199.499411	1365.617693	10.304000	-4.890000
	199.599417	1365.617693	10.304000	-4.890000
	199.699422	1365.611734	10.314000	-4.950000
	199.799428	1365.620076	10.290000	-4.830000
	199.899434	1365.615309	10.308000	-4.940000
	199.999439	1365.616501	10.300000	-4.890000
	200.099445	1365.614118	10.290000	-4.920000
	200.199451	1365.623652	10.304000	-4.820000
	200.299457	1365.623652	10.316000	-4.900000
	200.407463	1365.621268	10.324000	-4.920000
	200.499468	1365.735733	10.798000	-3.940000
	200.599474	1365.735733	10.798000	-3.940000
	200.699480	1366.005493	10.418000	-2.640000
	200.799485	1365.993572	10.198000	-5.000000
	200.899491	1365.973309	10.210000	-5.070000
	200.999496	1365.943511	10.220000	-5.150000
	201.099503	1365.937551	10.210000	-4.950000
	201.199508	1365.931591	10.188000	-4.950000
	201.299514	1365.920864	10.224000	-4.990000
	201.399519	1365.911328	10.202000	-4.980000
	201.499525	1365.911328	10.202000	-4.980000
	201.599531	1365.912520	10.184000	-4.890000
	201.699537	1365.911328	10.220000	-4.910000
	201.799542	1365.907752	10.220000	-4.930000
	201.899548	1365.888682	10.206000	-5.060000
	201.999554	1365.867228	10.202000	-5.080000
	202.099559	1365.870804	10.204000	-4.870000
	202.202566	1365.870804	10.224000	-4.900000
	202.302571	1365.843392	10.188000	-5.130000
	202.399577	1365.843392	10.186000	-4.900000
	202.499582	1365.843392	10.186000	-4.900000
	202.599588	1365.858888	10.184000	-4.770000
	202.699594	1365.860080	10.228000	-4.890000
	202.800600	1365.857696	10.210000	-4.920000
	202.899605	1365.855312	10.170000	-4.920000
	202.999611	1365.874384	10.184000	-4.740000
	203.099617	1365.866041	10.208000	-4.970000
	203.199623	1365.870809	10.198000	-4.860000
	203.300628	1365.862465	10.198000	-4.970000
	203.399634	1365.870809	10.196000	-4.830000
	203.499640	1365.870809	10.196000	-4.830000
	203.599645	1365.877961	10.214000	-4.840000
	203.699651	1365.872001	10.208000	-4.950000
	203.799657	1365.862466	10.186000	-4.980000
	203.899662	1365.869618	10.192000	-4.840000
	203.999668	1365.877962	10.214000	-4.830000
	204.099674	1365.881538	10.206000	-4.870000
	204.203680	1365.863660	10.198000	-5.050000
	204.299685	1365.858892	10.186000	-4.940000
	204.399691	1365.858892	10.186000	-4.940000
	204.499697	1365.868428	10.206000	-4.820000
	204.599702	1365.860084	10.238000	-4.970000
	204.699708	1365.863660	10.192000	-4.870000
	204.799714	1365.892270	10.208000	-4.660000
	204.899720	1365.897038	10.200000	-4.860000
	204.999725	1365.888694	10.214000	-4.970000
	205.099731	1365.876775	10.200000	-5.000000
	205.199737	1365.875583	10.182000	-4.910000
	205.299743	1365.880351	10.216000	-4.860000
	205.399748	1365.880351	10.216000	-4.860000
	205.499754	1365.877967	10.204000	-4.920000
	205.599760	1365.864856	10.188000	-5.010000
	205.699765	1365.861281	10.196000	-4.930000
	205.799771	1365.867240	10.202000	-4.850000
	205.899777	1365.863665	10.202000	-4.930000
	205.999783	1365.855321	10.210000	-4.970000
	206.102788	1365.850554	10.182000	-4.940000
	206.199794	1365.860089	10.206000	-4.820000
	206.299800	1365.858897	10.216000	-4.910000
	206.399806	1365.849362	10.210000	-4.980000
	206.499811	1365.849362	10.210000	-4.980000
	206.599817	1365.833868	10.202000	-5.030000
	206.699822	1365.835060	10.186000	-4.890000
	206.799829	1365.838636	10.214000	-4.870000
	206.899834	1365.846980	10.218000	-4.830000
	206.949837	1365.846980	10.218000	-4.830000
	207.106846	1365.844596	10.188000	-4.920000
	207.199851	1365.856515	10.220000	-4.800000
	207.299857	1365.851748	10.214000	-4.940000
	207.401863	1365.850556	10.188000	-4.910000
	207.499868	1365.854132	10.198000	-4.870000
	207.649877	1365.851748	10.218000	-4.920000
	207.749883	1365.854132	10.182000	-4.880000
	207.849888	1365.858900	10.206000	-4.860000
	207.949894	1365.861283	10.198000	-4.880000
	208.049900	1365.845789	10.180000	-5.030000
	208.149906	1365.833870	10.204000	-5.000000
	208.249911	1365.848174	10.220000	-4.780000
	208.349917	1365.843406	10.216000	-4.940000
	208.449923	1365.839831	10.188000	-4.930000
	208.549929	1365.839831	10.188000	-4.930000
	208.649934	1365.839831	10.196000	-4.900000
	208.749940	1365.852943	10.184000	-4.790000
	208.849946	1365.854134	10.224000	-4.890000
	208.950952	1365.868438	10.190000	-4.780000
	209.049957	1365.867246	10.190000	-4.910000
	209.149963	1365.877974	10.192000	-4.810000
	209.249969	1365.894663	10.206000	-4.760000
	209.349974	1365.881552	10.198000	-5.010000
	209.453980	1365.875592	10.188000	-4.950000
	209.549985	1365.875592	10.188000	-4.950000
	209.649992	1365.883936	10.184000	-4.830000
	209.749997	1365.889896	10.200000	-4.850000
	209.850003	1365.885128	10.200000	-4.940000
	209.950008	1365.877977	10.210000	-4.960000
	210.050014	1365.881553	10.208000	-4.870000
	210.150020	1365.882744	10.216000	-4.890000
	210.250026	1365.886320	10.222000	-4.870000
	210.350031	1365.873209	10.182000	-5.010000
	210.450037	1365.866058	10.204000	-4.960000
	210.550043	1365.866058	10.204000	-4.960000
	210.650049	1365.881554	10.216000	-4.770000
	210.750054	1365.893474	10.216000	-4.800000
	210.850060	1365.886323	10.192000	-4.960000
	210.950066	1365.874403	10.194000	-5.000000
	211.050071	1365.875595	10.192000	-4.890000
	211.150077	1365.894668	10.204000	-4.740000
	211.250083	1365.870831	10.210000	-5.100000
	211.353089	1365.866063	10.198000	-4.940000
	211.450094	1365.867255	10.180000	-4.890000
	211.552100	1365.867255	10.180000	-4.890000
	211.650106	1365.872023	10.192000	-4.860000
	211.750112	1365.879175	10.218000	-4.840000
	211.850117	1365.864872	10.202000	-5.020000
	211.950123	1365.861296	10.206000	-4.930000
	212.050128	1365.881561	10.206000	-4.730000
	212.150135	1365.889905	10.236000	-4.830000
	212.250140	1365.882753	10.194000	-4.960000
	212.350146	1365.886329	10.182000	-4.870000
	212.450151	1365.882753	10.206000	-4.930000
	212.550157	1365.882753	10.206000	-4.930000
	212.650163	1365.882753	10.216000	-4.900000
	212.750169	1365.868450	10.216000	-5.020000
	212.850174	1365.880370	10.172000	-4.800000
	212.950180	1365.895867	10.194000	-4.770000
	213.050186	1365.910171	10.202000	-4.780000
	213.152192	1365.899444	10.188000	-4.990000
	213.252197	1365.892292	10.168000	-4.960000
	213.350203	1365.897060	10.210000	-4.860000
	213.452209	1365.897060	10.210000	-4.860000
	213.550214	1365.906596	10.208000	-4.820000
	213.650220	1365.899444	10.216000	-4.960000
	213.750226	1365.889909	10.182000	-4.980000
	213.850232	1365.892293	10.186000	-4.880000
	213.950237	1365.905405	10.218000	-4.790000
	214.050243	1365.899445	10.218000	-4.950000
	214.150249	1365.914942	10.208000	-4.770000
	214.250255	1365.906598	10.184000	-4.970000
	214.350260	1365.919711	10.184000	-4.790000
	214.450266	1365.919711	10.184000	-4.790000
	214.550272	1365.924479	10.214000	-4.860000
	214.650277	1365.910175	10.180000	-5.020000
	214.750283	1365.916136	10.188000	-4.850000
	214.849289	1365.914944	10.212000	-4.910000
	214.949295	1365.906600	10.206000	-4.970000
	215.049300	1365.893489	10.206000	-5.010000
	215.154306	1365.889913	10.176000	-4.930000
	215.249311	1365.901833	10.196000	-4.800000
	215.349318	1365.901833	10.196000	-4.800000
	215.449323	1365.906601	10.214000	-4.860000
	215.549329	1365.889914	10.204000	-5.040000
	215.649334	1365.892298	10.178000	-4.880000
	215.749340	1365.901834	10.218000	-4.820000
	215.849346	1365.910178	10.206000	-4.830000
	215.949352	1365.895875	10.178000	-5.020000
	216.049357	1365.895875	10.182000	-4.900000
	216.153363	1365.900643	10.200000	-4.860000
	216.249369	1365.886340	10.210000	-5.020000
	216.349375	1365.892300	10.192000	-4.850000
	216.450380	1365.892300	10.192000	-4.850000
	216.549386	1365.905413	10.190000	-4.790000
	216.649392	1365.910181	10.220000	-4.860000
	216.749397	1365.892302	10.198000	-5.050000
	216.849403	1365.887534	10.180000	-4.940000
	216.949409	1365.901839	10.198000	-4.780000
	217.050415	1365.899455	10.200000	-4.920000
	217.149420	1365.887535	10.222000	-5.000000
	217.249426	1365.881576	10.200000	-4.950000
	217.349432	1365.883960	10.202000	-4.880000
	217.449438	1365.883960	10.202000	-4.880000
	217.599446	1365.879192	10.208000	-4.940000
	217.699452	1365.863697	10.206000	-5.030000
	217.799458	1365.898268	10.198000	-4.610000
	217.899463	1365.914957	10.228000	-4.760000
	217.999469	1365.908997	10.222000	-4.950000
	218.099474	1365.910189	10.212000	-4.890000
	218.199481	1365.919725	10.194000	-4.820000
	218.299486	1365.913765	10.214000	-4.950000
	218.399492	1365.911382	10.200000	-4.920000
	218.449495	1365.911382	10.200000	-4.920000
	218.599503	1365.897078	10.198000	-5.020000
	218.699509	1365.900654	10.202000	-4.870000
	218.799515	1365.901846	10.216000	-4.890000
	218.899520	1365.886352	10.188000	-5.030000
	218.999526	1365.887544	10.192000	-4.890000
	219.099532	1365.885160	10.220000	-4.920000
	219.199538	1365.885160	10.212000	-4.900000
	219.299543	1365.870857	10.196000	-5.020000
	219.399549	1365.893506	10.210000	-4.710000
	219.499555	1365.893506	10.210000	-4.710000
	219.599560	1365.914963	10.204000	-4.720000
	219.699566	1365.901852	10.196000	-5.010000
	219.799572	1365.906620	10.178000	-4.860000
	219.899578	1365.919732	10.196000	-4.790000
	219.999583	1365.922116	10.218000	-4.880000
	220.099589	1365.901854	10.200000	-5.070000
	220.199595	1365.904238	10.192000	-4.880000
	220.299601	1365.907814	10.204000	-4.870000
	220.402606	1365.900662	10.198000	-4.960000
	220.499612	1365.900662	10.198000	-4.960000
	220.599617	1365.892318	10.196000	-4.970000
	220.699623	1365.895894	10.210000	-4.870000
	220.799629	1365.904238	10.218000	-4.830000
	220.899635	1365.905430	10.204000	-4.890000
	220.999640	1365.893511	10.202000	-5.000000
	221.099646	1365.894703	10.204000	-4.890000
	221.199652	1365.891127	10.200000	-4.930000
	221.303658	1365.900663	10.190000	-4.820000
	221.399663	1365.894704	10.188000	-4.950000
	221.499669	1365.894704	10.188000	-4.950000
	221.599675	1365.912584	10.210000	-4.750000
	221.699680	1365.906625	10.220000	-4.950000
	221.799686	1365.900665	10.176000	-4.950000
	221.899692	1365.906625	10.178000	-4.850000
	221.999698	1365.910201	10.198000	-4.870000
	222.099703	1365.910201	10.208000	-4.900000
	222.199709	1365.904241	10.194000	-4.950000
	222.304715	1365.920930	10.202000	-4.760000
	222.399721	1365.917354	10.214000	-4.930000
	222.499726	1365.917354	10.214000	-4.930000
	222.599732	1365.909010	10.194000	-4.970000
	222.699738	1365.903050	10.188000	-4.950000
	222.800744	1365.907818	10.200000	-4.860000
	222.899749	1365.918547	10.224000	-4.810000
	222.999755	1365.903052	10.198000	-5.030000
	223.099761	1365.898284	10.188000	-4.940000
	223.205767	1365.914972	10.196000	-4.760000
	223.303772	1365.912588	10.194000	-4.920000
	223.399778	1365.911396	10.190000	-4.910000
	223.499784	1365.911396	10.190000	-4.910000
	223.599789	1365.924509	10.180000	-4.790000
	223.699795	1365.935237	10.200000	-4.810000
	223.799801	1365.925702	10.198000	-4.980000
	223.901806	1365.920934	10.198000	-4.940000
	223.999812	1365.905439	10.196000	-5.030000
	224.099818	1365.909015	10.208000	-4.870000
	224.201824	1365.898287	10.204000	-4.990000
	224.299829	1365.889944	10.174000	-4.970000
	224.399835	1365.903056	10.204000	-4.790000
	224.499841	1365.903056	10.204000	-4.790000
	224.599846	1365.909016	10.220000	-4.850000
	224.699852	1365.892329	10.196000	-5.040000
	224.799858	1365.904249	10.188000	-4.800000
	224.899864	1365.922130	10.200000	-4.750000
	224.999869	1365.920938	10.208000	-4.910000
	225.099875	1365.907827	10.200000	-5.010000
	225.205881	1365.904251	10.196000	-4.930000
	225.299886	1365.918556	10.206000	-4.780000
	225.399892	1365.910212	10.206000	-4.970000
	225.499898	1365.910212	10.206000	-4.970000
	225.599904	1365.898293	10.200000	-5.000000
	225.699909	1365.904253	10.172000	-4.850000
	225.799915	1365.911405	10.196000	-4.840000
	225.899921	1365.894718	10.214000	-5.040000
	225.999927	1365.900678	10.176000	-4.850000
	226.099932	1365.907830	10.202000	-4.840000
	226.200938	1365.903062	10.208000	-4.940000
	226.299943	1365.905446	10.170000	-4.880000
	226.399950	1365.912598	10.180000	-4.840000
	226.499955	1365.912598	10.180000	-4.840000
	226.599961	1365.913790	10.204000	-4.890000
	226.699966	1365.909022	10.190000	-4.940000
	226.799972	1365.907830	10.192000	-4.910000
	226.899978	1365.909022	10.180000	-4.890000
	226.999984	1365.916174	10.198000	-4.840000
	227.104990	1365.918558	10.190000	-4.880000
	227.199995	1365.907831	10.192000	-4.990000
	227.300001	1365.920943	10.208000	-4.790000
	227.400007	1365.920943	10.208000	-4.790000
	227.500012	1365.932864	10.224000	-4.800000
	227.650021	1365.911409	10.210000	-5.080000
	227.750027	1365.903066	10.180000	-4.970000
	227.850032	1365.924523	10.196000	-4.720000
	227.950038	1365.925715	10.212000	-4.890000
	228.050044	1365.917371	10.206000	-4.970000
	228.150050	1365.918563	10.170000	-4.890000
	228.250055	1365.919755	10.192000	-4.890000
	228.350061	1365.895917	10.216000	-5.100000
	228.451067	1365.895917	10.216000	-5.100000
	228.550072	1365.892341	10.194000	-4.930000
	228.650078	1365.903070	10.208000	-4.810000
	228.750084	1365.905454	10.220000	-4.880000
	228.850090	1365.894726	10.210000	-4.990000
	228.950095	1365.886383	10.192000	-4.970000
	229.050101	1365.892343	10.194000	-4.850000
	229.150107	1365.894727	10.220000	-4.880000
	229.250113	1365.881616	10.194000	-5.010000
	229.350118	1365.888767	10.192000	-4.840000
	229.453124	1365.899496	10.200000	-4.810000
	229.550129	1365.899496	10.200000	-4.810000
	229.650136	1365.901879	10.202000	-4.880000
	229.750141	1365.897112	10.212000	-4.940000
	229.850147	1365.907840	10.188000	-4.810000
	229.950152	1365.916184	10.214000	-4.830000
	230.050158	1365.913800	10.184000	-4.920000
	230.150164	1365.900689	10.190000	-5.010000
	230.250170	1365.913801	10.192000	-4.790000
	230.352175	1365.912609	10.204000	-4.910000
	230.458181	1365.899498	10.204000	-5.010000
	230.550187	1365.910226	10.188000	-4.810000
	230.650193	1365.910226	10.188000	-4.810000
	230.750198	1365.911418	10.234000	-4.890000
	230.850204	1365.913802	10.202000	-4.880000
	230.950210	1365.925722	10.184000	-4.800000
	231.050215	1365.924530	10.222000	-4.910000
	231.150221	1365.907844	10.202000	-5.040000
	231.250227	1365.903076	10.190000	-4.940000
	231.350233	1365.910228	10.220000	-4.840000
	231.450238	1365.904268	10.208000	-4.950000
	231.551244	1365.916188	10.192000	-4.800000
	231.650250	1365.916188	10.204000	-4.900000
	231.750256	1365.909037	10.204000	-4.960000
	231.850261	1365.912613	10.174000	-4.870000
	231.950267	1365.919765	10.216000	-4.840000
	232.051273	1365.911421	10.194000	-4.970000
	232.150279	1365.920957	10.202000	-4.820000
	232.253284	1365.920957	10.202000	-4.820000
	232.356290	1365.911422	10.216000	-4.980000
	232.452295	1365.910230	10.194000	-4.910000
	232.549301	1365.911422	10.222000	-4.890000
	232.649307	1365.905462	10.210000	-4.950000
	232.749312	1365.912614	10.210000	-4.840000
	232.849318	1365.923342	10.220000	-4.810000
	232.949324	1365.917382	10.210000	-4.950000
	233.049330	1365.914998	10.190000	-4.920000
	233.149335	1365.917382	10.202000	-4.880000
	233.250341	1365.926919	10.214000	-4.820000
	233.349347	1365.905464	10.202000	-5.080000
	233.449353	1365.905464	10.202000	-5.080000
	233.549358	1365.909040	10.190000	-4.870000
	233.649364	1365.918576	10.198000	-4.820000
	233.749370	1365.895930	10.192000	-5.090000
	233.849375	1365.901890	10.194000	-4.850000
	233.949381	1365.917387	10.216000	-4.770000
	234.049387	1365.915003	10.208000	-4.920000
	234.149393	1365.903084	10.216000	-5.000000
	234.249398	1365.922157	10.178000	-4.740000
	234.349404	1365.920965	10.208000	-4.910000
	234.449410	1365.919773	10.220000	-4.910000
	234.549416	1365.919773	10.220000	-4.910000
	234.649421	1365.905470	10.206000	-5.020000
	234.749427	1365.918582	10.186000	-4.790000
	234.849432	1365.905471	10.218000	-5.010000
	234.949439	1365.904279	10.196000	-4.910000
	235.049444	1365.903087	10.184000	-4.910000
	235.150450	1365.918583	10.216000	-4.770000
	235.249455	1365.918583	10.212000	-4.900000
	235.349461	1365.894745	10.206000	-5.100000
	235.449467	1365.903090	10.190000	-4.830000
	235.549473	1365.903090	10.190000	-4.830000
	235.649478	1365.899514	10.206000	-4.930000
	235.749484	1365.897130	10.200000	-4.920000
	235.849490	1365.898322	10.194000	-4.890000
	235.949496	1365.894746	10.212000	-4.930000
	236.049501	1365.905474	10.210000	-4.810000
	236.155508	1365.905474	10.200000	-4.900000
	236.249513	1365.916202	10.184000	-4.810000
	236.349518	1365.918586	10.202000	-4.880000
	236.449524	1365.917394	10.202000	-4.910000
	236.603533	1365.917394	10.202000	-4.910000
	236.699539	1365.910242	10.194000	-4.960000
	236.799544	1365.917395	10.188000	-4.840000
	236.902550	1365.916203	10.214000	-4.910000
	236.999556	1365.912627	10.210000	-4.930000
	237.099561	1365.903091	10.202000	-4.980000
	237.199567	1365.907859	10.212000	-4.860000
	237.299573	1365.893556	10.206000	-5.020000
	237.399579	1365.881637	10.206000	-5.000000
	237.501585	1365.881637	10.206000	-5.000000
	237.599590	1365.875677	10.192000	-4.950000
	237.699596	1365.895942	10.204000	-4.730000
	237.799602	1365.892366	10.206000	-4.930000
	237.899607	1365.887598	10.186000	-4.940000
	237.999613	1365.903095	10.206000	-4.770000
	238.099618	1365.911439	10.226000	-4.830000
	238.199625	1365.904287	10.216000	-4.960000
	238.299630	1365.885217	10.194000	-5.060000
	238.399636	1365.897137	10.190000	-4.800000
	238.504642	1365.906673	10.216000	-4.820000
	238.599647	1365.906673	10.216000	-4.820000
	238.699653	1365.904289	10.214000	-4.920000
	238.799659	1365.900713	10.178000	-4.930000
	238.899664	1365.928131	10.198000	-4.670000
	238.999670	1365.920980	10.216000	-4.960000
	239.099676	1365.917404	10.218000	-4.930000
	239.199682	1365.904293	10.196000	-5.010000
	239.299687	1365.911445	10.200000	-4.840000
	239.399693	1365.910253	10.220000	-4.910000
	239.499699	1365.910253	10.220000	-4.910000
	239.599704	1365.897141	10.218000	-5.010000
	239.699710	1365.895949	10.192000	-4.910000
	239.800716	1365.907870	10.184000	-4.800000
	239.899722	1365.916214	10.212000	-4.830000
	239.999727	1365.910254	10.224000	-4.950000
	240.099733	1365.895951	10.190000	-5.020000
	240.199739	1365.898335	10.196000	-4.880000
	240.299745	1365.911447	10.198000	-4.790000
	240.399750	1365.900720	10.208000	-4.990000
	240.499756	1365.900720	10.208000	-4.990000
	240.604762	1365.907872	10.202000	-4.840000
	240.699767	1365.915024	10.208000	-4.840000
	240.799773	1365.910256	10.188000	-4.940000
	240.849776	1365.928137	10.204000	-4.880000
	241.049788	1365.928137	10.204000	-4.880000
	241.149793	1365.922177	10.214000	-4.950000
	241.249799	1365.929329	10.182000	-4.840000
	241.352805	1365.930521	10.204000	-4.890000
	241.449810	1365.936481	10.178000	-4.850000
	241.553816	1365.946017	10.182000	-4.820000
	241.649822	1365.947209	10.218000	-4.890000
	241.749827	1365.937674	10.200000	-4.980000
	241.849833	1365.946018	10.186000	-4.830000
	241.949839	1365.946018	10.186000	-4.830000
	242.049845	1365.941250	10.214000	-4.940000
	242.149850	1365.948402	10.210000	-4.840000
	242.249856	1365.917413	10.200000	-5.160000
	242.351862	1365.919797	10.170000	-4.880000
	242.449867	1365.931718	10.236000	-4.800000
	242.549873	1365.928142	10.200000	-4.930000
	242.649879	1365.919798	10.184000	-4.970000
	242.799888	1365.922182	10.202000	-4.880000
	242.899893	1365.918606	10.210000	-4.930000
	242.999899	1365.913838	10.188000	-4.940000
	243.099905	1365.919798	10.212000	-4.850000
	243.199910	1365.923374	10.210000	-4.870000
	243.299916	1365.925758	10.204000	-4.880000
	243.399922	1365.917415	10.196000	-4.970000
	243.500927	1365.919799	10.212000	-4.880000
	243.599933	1365.917415	10.210000	-4.920000
	243.699939	1365.906687	10.192000	-4.990000
	243.800945	1365.906687	10.192000	-4.990000
	243.899951	1365.918607	10.216000	-4.800000
	243.999956	1365.925760	10.218000	-4.840000
	244.099962	1365.922184	10.192000	-4.930000
	244.199967	1365.924568	10.184000	-4.880000
	244.299973	1365.923376	10.180000	-4.910000
	244.399979	1365.938872	10.204000	-4.770000
	244.499985	1365.946025	10.200000	-4.840000
	244.599990	1365.934105	10.190000	-5.000000
	244.699996	1365.931721	10.198000	-4.920000
	244.800002	1365.932913	10.218000	-4.890000
	244.900008	1365.932913	10.218000	-4.890000
	245.000013	1365.923377	10.194000	-4.980000
	245.100019	1365.917418	10.188000	-4.950000
	245.201025	1365.919802	10.210000	-4.880000
	245.300030	1365.900731	10.204000	-5.060000
	245.400036	1365.904307	10.182000	-4.870000
	245.500042	1365.919804	10.200000	-4.770000
	245.602048	1365.924572	10.204000	-4.860000
	245.700053	1365.916228	10.196000	-4.970000
	245.804059	1365.919804	10.194000	-4.870000
	245.900065	1365.925764	10.218000	-4.850000
	246.000071	1365.925764	10.212000	-4.900000
	246.100076	1365.919804	10.202000	-4.950000
	246.204082	1365.917420	10.210000	-4.920000
	246.300087	1365.917420	10.210000	-4.920000
	246.401093	1365.923380	10.216000	-4.850000
	246.500099	1365.906693	10.200000	-5.040000
	246.600105	1365.915037	10.202000	-4.830000
	246.700110	1365.911461	10.208000	-4.930000
	246.800116	1365.913845	10.208000	-4.880000
	246.900122	1365.910270	10.210000	-4.930000
	247.000128	1365.918614	10.192000	-4.830000
	247.100133	1365.918614	10.208000	-4.900000
	247.250142	1365.918614	10.202000	-4.900000
	247.350148	1365.910270	10.186000	-4.970000
	247.450153	1365.919806	10.206000	-4.820000
	247.550159	1365.895968	10.206000	-5.100000
	247.650165	1365.907889	10.184000	-4.800000
	247.750171	1365.913849	10.196000	-4.850000
	247.850176	1365.921001	10.216000	-4.840000
	247.950182	1365.917425	10.202000	-4.930000
	248.050188	1365.917425	10.202000	-4.930000
	248.150193	1365.919809	10.176000	-4.880000
	248.250199	1365.919809	10.214000	-4.900000
	248.350205	1365.928153	10.210000	-4.830000
	248.450211	1365.931729	10.190000	-4.870000
	248.550216	1365.926961	10.212000	-4.940000
	248.650222	1365.917425	10.220000	-4.980000
	248.750228	1365.912658	10.208000	-4.940000
	248.850234	1365.915042	10.212000	-4.880000
	248.951239	1365.918618	10.224000	-4.870000
	249.050245	1365.906698	10.188000	-5.000000
	249.150250	1365.915042	10.198000	-4.830000
	249.251256	1365.905507	10.194000	-4.980000
	249.350262	1365.905507	10.204000	-4.900000
	249.450268	1365.898355	10.194000	-4.960000
	249.550273	1365.903123	10.218000	-4.860000
	249.650279	1365.903123	10.218000	-4.860000
	249.750285	1365.899547	10.202000	-4.930000
	249.849291	1365.894779	10.198000	-4.940000
	249.949296	1365.898355	10.200000	-4.870000
	250.049302	1365.895971	10.214000	-4.920000
	250.149308	1365.884052	10.202000	-5.000000
	250.249313	1365.900741	10.202000	-4.760000
	250.352319	1365.912661	10.206000	-4.800000
	250.449325	1365.911469	10.210000	-4.910000
	250.549331	1365.897166	10.196000	-5.020000
	250.649336	1365.900742	10.184000	-4.870000
	250.749342	1365.913854	10.216000	-4.790000
	250.849348	1365.921006	10.236000	-4.840000
	250.952354	1365.921006	10.236000	-4.840000
	251.049359	1365.900744	10.206000	-5.070000
	251.149365	1365.899552	10.214000	-4.910000
	251.249371	1365.898360	10.200000	-4.910000
	251.349377	1365.913857	10.204000	-4.770000
	251.449382	1365.916241	10.218000	-4.880000
	251.549388	1365.918625	10.198000	-4.880000
	251.649394	1365.919817	10.202000	-4.890000
	251.749399	1365.915049	10.196000	-4.940000
	251.857406	1365.915049	10.196000	-4.940000
	251.952411	1365.930545	10.216000	-4.770000
	252.049417	1365.929353	10.202000	-4.910000
	252.151423	1365.922202	10.198000	-4.960000
	252.249428	1365.916242	10.192000	-4.950000
	252.349433	1365.924586	10.214000	-4.830000
	252.449440	1365.903132	10.212000	-5.080000
	252.549445	1365.894788	10.190000	-4.970000
	252.649451	1365.906708	10.224000	-4.800000
	252.749456	1365.921013	10.232000	-4.780000
	252.849462	1365.915053	10.206000	-4.950000
	252.949468	1365.922205	10.186000	-4.840000
	253.049474	1365.936510	10.206000	-4.780000
	253.149479	1365.937702	10.220000	-4.890000
	253.249485	1365.935318	10.200000	-4.920000
	253.349491	1365.942470	10.202000	-4.840000
	253.449497	1365.953198	10.238000	-4.810000
	253.549502	1365.953198	10.238000	-4.810000
	253.649508	1365.943663	10.216000	-4.980000
	253.749514	1365.941279	10.196000	-4.920000
	253.849519	1365.947239	10.220000	-4.850000
	253.949525	1365.930552	10.210000	-5.040000
	254.049531	1365.922208	10.180000	-4.970000
	254.149537	1365.923400	10.208000	-4.890000
	254.249542	1365.928168	10.226000	-4.860000
	254.349548	1365.923400	10.206000	-4.940000
	254.449554	1365.924592	10.214000	-4.890000
	254.549560	1365.925784	10.210000	-4.890000
	254.649565	1365.906713	10.190000	-5.060000
	254.752571	1365.911481	10.202000	-4.860000
	254.949583	1365.922210	10.212000	-4.810000
	255.049588	1365.924594	10.190000	-4.880000
	255.149594	1365.930554	10.196000	-4.850000
	255.249599	1365.926978	10.206000	-4.930000
	255.349605	1365.915058	10.198000	-5.000000
	255.450611	1365.928171	10.178000	-4.790000
	255.549617	1365.935323	10.202000	-4.840000
	255.699625	1365.916252	10.190000	-5.060000
	255.799631	1365.916252	10.190000	-5.060000
	255.856634	1365.922212	10.192000	-4.850000
	255.999642	1365.926980	10.182000	-4.860000
	256.099648	1365.930556	10.204000	-4.870000
	256.201654	1365.915061	10.212000	-5.030000
	256.299660	1365.921021	10.212000	-4.850000
	256.399665	1365.926981	10.186000	-4.850000
	256.549674	1365.931749	10.214000	-4.860000
	256.651680	1365.925790	10.204000	-4.950000
	256.749685	1365.918638	10.192000	-4.960000
	256.849691	1365.928174	10.200000	-4.820000
	256.950697	1365.931750	10.214000	-4.870000
	257.049703	1365.931750	10.208000	-4.900000
	257.149708	1365.919831	10.190000	-5.000000
	257.249714	1365.930559	10.198000	-4.810000
	257.349720	1365.941287	10.220000	-4.810000
	257.449725	1365.941287	10.220000	-4.810000
	257.549731	1365.938903	10.212000	-4.920000
	257.649737	1365.934135	10.194000	-4.940000
	257.749743	1365.944864	10.192000	-4.810000
	257.849748	1365.957977	10.212000	-4.790000
	257.949754	1365.938906	10.194000	-5.060000
	258.049760	1365.931754	10.196000	-4.960000
	258.149765	1365.937714	10.202000	-4.850000
	258.249771	1365.936522	10.202000	-4.910000
	258.349777	1365.923410	10.192000	-5.010000
	258.449782	1365.938907	10.208000	-4.770000
	258.549788	1365.944867	10.230000	-4.850000
	258.649794	1365.929372	10.206000	-5.030000
	258.749800	1365.930564	10.200000	-4.890000
	258.849805	1365.931756	10.218000	-4.890000
	258.949811	1365.922220	10.204000	-4.980000
	259.049817	1365.922220	10.204000	-4.980000
	259.149823	1365.924604	10.186000	-4.880000
	259.249828	1365.934141	10.218000	-4.820000
	259.349834	1365.940101	10.228000	-4.850000
	259.451840	1365.938909	10.214000	-4.910000
	259.549845	1365.940101	10.182000	-4.890000
	259.649851	1365.937717	10.208000	-4.920000
	259.749857	1365.938909	10.236000	-4.890000
	259.849863	1365.926989	10.202000	-5.000000
	259.949868	1365.917454	10.184000	-4.980000
	260.049874	1365.921030	10.210000	-4.870000
	260.149880	1365.915070	10.202000	-4.950000
	260.249886	1365.892424	10.214000	-5.090000
	260.349891	1365.892424	10.214000	-5.090000
	260.449897	1365.910305	10.208000	-4.750000
	260.549902	1365.926993	10.222000	-4.760000
	260.649909	1365.915074	10.196000	-5.000000
	260.749914	1365.928186	10.198000	-4.790000
	260.849920	1365.932955	10.224000	-4.860000
	260.949925	1365.923419	10.206000	-4.980000
	261.049931	1365.931763	10.200000	-4.830000
	261.149937	1365.935339	10.218000	-4.870000
	261.249943	1365.938915	10.224000	-4.870000
	261.349948	1365.929379	10.214000	-4.980000
	261.449954	1365.943684	10.184000	-4.780000
	261.549960	1365.947260	10.214000	-4.870000
	261.649966	1365.946068	10.204000	-4.910000
	261.749971	1365.948452	10.192000	-4.880000
	261.849977	1365.957989	10.206000	-4.820000
	261.949983	1365.957989	10.206000	-4.820000
	262.049988	1365.966333	10.226000	-4.830000
	262.149994	1365.947262	10.218000	-5.060000
	262.250000	1365.938918	10.210000	-4.970000
	262.350006	1365.948454	10.210000	-4.820000
	262.450011	1365.947262	10.226000	-4.910000
	262.550017	1365.943686	10.206000	-4.930000
	262.650023	1365.955607	10.186000	-4.800000
	262.752028	1365.965144	10.228000	-4.820000
	262.850034	1365.955608	10.218000	-4.980000
	262.950040	1365.957992	10.206000	-4.880000
	263.050045	1365.956800	10.198000	-4.910000
	263.150052	1365.960376	10.224000	-4.870000
	263.250057	1365.949648	10.194000	-4.990000
	263.350063	1365.953224	10.202000	-4.870000
	263.450068	1365.952032	10.210000	-4.910000
	263.550074	1365.952032	10.210000	-4.910000
	263.651080	1365.931769	10.210000	-5.070000
	263.750086	1365.929385	10.210000	-4.920000
	263.850091	1365.944882	10.218000	-4.770000
	263.950097	1365.947266	10.218000	-4.880000
	264.050103	1365.934155	10.200000	-5.010000
	264.150109	1365.938923	10.190000	-4.860000
	264.250114	1365.950843	10.218000	-4.800000
	264.350120	1365.932964	10.218000	-5.050000
	264.450126	1365.936540	10.178000	-4.870000
	264.550131	1365.940116	10.208000	-4.870000
	264.650137	1365.944884	10.236000	-4.860000
	264.750143	1365.931773	10.218000	-5.010000
	264.850149	1365.943694	10.184000	-4.800000
	264.950154	1365.946078	10.234000	-4.880000
	265.050160	1365.938926	10.214000	-4.960000
	265.150166	1365.938926	10.214000	-4.960000
	265.250172	1365.936542	10.212000	-4.920000
	265.350177	1365.943694	10.198000	-4.840000
	265.450183	1365.947270	10.222000	-4.870000
	265.550189	1365.947270	10.202000	-4.900000
	265.650195	1365.943694	10.194000	-4.930000
	265.750200	1365.947270	10.224000	-4.870000
	265.850206	1365.955614	10.226000	-4.830000
	265.950212	1365.938927	10.190000	-5.040000
	266.050217	1365.952040	10.206000	-4.790000
	266.150223	1365.967537	10.222000	-4.770000
	266.250229	1365.950850	10.222000	-5.040000
	266.350235	1365.956810	10.194000	-4.850000
	266.450240	1365.960386	10.198000	-4.870000
	266.550246	1365.972307	10.196000	-4.800000
	266.650252	1365.972307	10.196000	-4.800000
	266.750257	1365.962771	10.208000	-4.980000
	266.850263	1365.946083	10.198000	-5.040000
	266.950269	1365.948467	10.206000	-4.880000
	267.050274	1365.947275	10.206000	-4.910000
	267.150280	1365.929396	10.198000	-5.050000
	267.250286	1365.935356	10.200000	-4.850000
	267.349291	1365.935356	10.200000	-4.900000
	267.449297	1365.935356	10.206000	-4.900000
	267.549303	1365.944893	10.196000	-4.820000
	267.649309	1365.932973	10.178000	-5.000000
	267.749314	1365.937741	10.206000	-4.860000
	267.849320	1365.934165	10.200000	-4.930000
	267.949326	1365.935357	10.212000	-4.890000
	268.049332	1365.946086	10.200000	-4.810000
	268.149337	1365.944894	10.218000	-4.910000
	268.249343	1365.944894	10.218000	-4.910000
	268.349349	1365.961583	10.210000	-4.760000
	268.449355	1365.948471	10.192000	-5.010000
	268.549360	1365.952047	10.180000	-4.870000
	268.649366	1365.950855	10.190000	-4.910000
	268.749372	1365.946087	10.208000	-4.940000
	268.849377	1365.948471	10.194000	-4.880000
	268.949383	1365.954432	10.190000	-4.850000
	269.049389	1365.953240	10.212000	-4.910000
	269.149395	1365.944896	10.210000	-4.970000
	269.249400	1365.950856	10.194000	-4.850000
	269.350406	1365.956816	10.204000	-4.850000
	269.449412	1365.952048	10.196000	-4.940000
	269.549417	1365.950856	10.204000	-4.910000
	269.649423	1365.950856	10.204000	-4.910000
	269.749429	1365.962777	10.196000	-4.800000
	269.850435	1365.984235	10.234000	-4.720000
	269.949440	1365.977083	10.230000	-4.960000
	270.049446	1365.980659	10.200000	-4.870000
	270.149452	1365.991388	10.186000	-4.810000
	270.249457	1365.981852	10.202000	-4.980000
	270.349463	1365.977084	10.206000	-4.940000
	270.449469	1365.973508	10.176000	-4.930000
	270.549475	1365.968740	10.212000	-4.940000
	270.649480	1365.967548	10.210000	-4.910000
	270.749486	1365.943709	10.210000	-5.100000
	270.849492	1365.947285	10.216000	-4.870000
	270.949498	1365.961590	10.216000	-4.780000
	271.049503	1365.950862	10.196000	-4.990000
	271.149509	1365.950862	10.196000	-4.990000
	271.249515	1365.946094	10.170000	-4.940000
	271.349520	1365.956823	10.214000	-4.810000
	271.449526	1365.949671	10.216000	-4.960000
	271.549532	1365.942519	10.178000	-4.960000
	271.649538	1365.947287	10.226000	-4.860000
	271.749543	1365.954439	10.212000	-4.840000
	271.849549	1365.946095	10.212000	-4.970000
	271.949555	1365.943711	10.200000	-4.920000
	272.049561	1365.949671	10.192000	-4.850000
	272.149566	1365.948479	10.206000	-4.910000
	272.249572	1365.946095	10.204000	-4.920000
	272.349577	1365.938944	10.206000	-4.960000
	272.449584	1365.946096	10.226000	-4.840000
	272.549589	1365.940136	10.214000	-4.950000
	272.649595	1365.931792	10.210000	-4.970000
	272.749600	1365.931792	10.210000	-4.970000
	272.849606	1365.947289	10.194000	-4.770000
	272.949612	1365.953249	10.220000	-4.850000
	273.049618	1365.931794	10.204000	-5.080000
	273.149623	1365.936563	10.200000	-4.860000
	273.249629	1365.948483	10.196000	-4.800000
	273.349635	1365.946099	10.218000	-4.920000
	273.449641	1365.932988	10.188000	-5.010000
	273.549646	1365.932988	10.200000	-4.900000
	273.649652	1365.931796	10.222000	-4.910000
	273.749658	1365.947292	10.228000	-4.770000
	273.849663	1365.938949	10.208000	-4.970000
	273.949669	1365.949677	10.188000	-4.810000
	274.049675	1365.949677	10.212000	-4.900000
	274.149681	1365.944909	10.210000	-4.940000
	274.249686	1365.944909	10.210000	-4.940000
	274.349692	1365.944909	10.206000	-4.900000
	274.449698	1365.955638	10.220000	-4.810000
	274.549704	1365.952062	10.214000	-4.930000
	274.649709	1365.937758	10.224000	-5.020000
	274.749715	1365.932990	10.210000	-4.940000
	274.849720	1365.940142	10.212000	-4.840000
	274.949726	1365.949679	10.226000	-4.820000
	275.049732	1365.930608	10.214000	-5.060000
	275.149738	1365.910345	10.194000	-5.070000
	275.249743	1365.917497	10.210000	-4.840000
	275.349749	1365.921073	10.202000	-4.870000
	275.449755	1365.921073	10.200000	-4.900000
	275.549761	1365.918689	10.194000	-4.920000
	275.649766	1365.921073	10.208000	-4.880000
	275.749772	1365.931802	10.202000	-4.810000
	275.849778	1365.931802	10.202000	-4.810000
	275.949783	1365.919882	10.204000	-5.000000
	276.049789	1365.917498	10.180000	-4.920000
	276.149795	1365.928227	10.226000	-4.810000
	276.249801	1365.927035	10.214000	-4.910000
	276.349806	1365.919883	10.216000	-4.960000
	276.449812	1365.913923	10.210000	-4.950000
	276.549818	1365.937765	10.218000	-4.700000
	276.649824	1365.929421	10.218000	-4.970000
	276.749829	1365.928229	10.198000	-4.910000
	276.849835	1365.924653	10.198000	-4.930000
	276.949841	1365.936574	10.234000	-4.800000
	277.049847	1365.921078	10.224000	-5.030000
	277.149852	1365.917503	10.188000	-4.930000
	277.249858	1365.929423	10.210000	-4.800000
	277.349864	1365.929423	10.210000	-4.800000
	277.449869	1365.935383	10.228000	-4.850000
	277.549875	1365.932999	10.218000	-4.920000
	277.649881	1365.924655	10.194000	-4.970000
	277.749887	1365.937768	10.200000	-4.790000
	277.849892	1365.946112	10.196000	-4.830000
	277.949898	1365.956841	10.222000	-4.810000
	278.049904	1365.948497	10.210000	-4.970000
	278.149909	1365.941345	10.192000	-4.960000
	278.249915	1365.949689	10.210000	-4.830000
	278.349921	1365.938962	10.226000	-4.990000
	278.399924	1365.938962	10.226000	-4.990000
	278.551932	1365.949690	10.206000	-4.810000
	278.649938	1365.944922	10.222000	-4.940000
	278.749944	1365.948498	10.216000	-4.870000
	278.849949	1365.935387	10.212000	-5.010000
	278.951955	1365.921083	10.202000	-5.020000
	279.049961	1365.934196	10.204000	-4.790000
	279.149967	1365.927044	10.210000	-4.960000
	279.249972	1365.924660	10.218000	-4.920000
	279.353978	1365.910357	10.182000	-5.020000
	279.449984	1365.910357	10.182000	-5.020000
	279.551990	1365.921085	10.194000	-4.810000
	279.649995	1365.936582	10.216000	-4.770000
	279.752001	1365.937774	10.238000	-4.890000
	279.850007	1365.930622	10.202000	-4.960000
	279.952013	1365.936582	10.188000	-4.850000
	280.050018	1365.938966	10.210000	-4.880000
	280.150024	1365.934198	10.250000	-4.940000
	280.250030	1365.935390	10.190000	-4.890000
	280.350035	1365.940158	10.184000	-4.860000
	280.450041	1365.947311	10.224000	-4.840000
	280.550046	1365.949695	10.208000	-4.880000
	280.650053	1365.937775	10.180000	-5.000000
	280.750058	1365.937775	10.180000	-5.000000
	280.850064	1365.950888	10.204000	-4.790000
	280.950069	1365.959232	10.220000	-4.830000
	281.050075	1365.955656	10.200000	-4.930000
	281.150081	1365.948504	10.200000	-4.960000
	281.250087	1365.955656	10.228000	-4.840000
	281.350092	1365.953272	10.228000	-4.920000
	281.450098	1365.941353	10.194000	-5.000000
	281.550104	1365.938969	10.182000	-4.920000
	281.650110	1365.953274	10.214000	-4.780000
	281.750115	1365.942546	10.208000	-4.990000
	281.850121	1365.947314	10.202000	-4.860000
	281.966128	1365.955658	10.210000	-4.830000
	282.050132	1365.949698	10.204000	-4.950000
	282.150138	1365.949698	10.202000	-4.900000
	282.250144	1365.949698	10.202000	-4.900000
	282.352149	1365.956851	10.200000	-4.840000
	282.450155	1365.966387	10.224000	-4.820000
	282.553161	1365.978308	10.212000	-4.800000
	282.650167	1365.962812	10.206000	-5.030000
	282.750173	1365.956852	10.212000	-4.950000
	282.850178	1365.961620	10.192000	-4.860000
	282.950184	1365.978310	10.204000	-4.760000
	283.050189	1365.986654	10.216000	-4.830000
	283.151196	1365.986654	10.216000	-4.830000
	283.250201	1365.962815	10.204000	-5.100000
	283.350207	1365.954471	10.204000	-4.970000
	283.450212	1365.949703	10.196000	-4.940000
	283.550218	1365.958048	10.214000	-4.830000
	283.650224	1365.928250	10.210000	-5.150000
	283.752230	1365.934210	10.208000	-4.850000
	283.850235	1365.941363	10.206000	-4.840000
	283.965242	1365.956860	10.238000	-4.770000
	284.050247	1365.952092	10.230000	-4.940000
	284.150252	1365.959244	10.196000	-4.840000
	284.250258	1365.960436	10.198000	-4.890000
	284.352264	1365.960436	10.198000	-4.890000
	284.450270	1365.968780	10.218000	-4.830000
	284.552276	1365.956861	10.194000	-5.000000
	284.650281	1365.956861	10.194000	-4.900000
	284.755287	1365.965205	10.222000	-4.830000
	284.849293	1365.949709	10.210000	-5.030000
	284.949298	1365.948517	10.198000	-4.910000
	285.099307	1365.958054	10.218000	-4.820000
	285.149310	1365.965206	10.214000	-4.840000
	285.299318	1365.967590	10.226000	-4.880000
	285.399324	1365.955670	10.216000	-5.000000
	285.499330	1365.955670	10.216000	-5.000000
	285.599336	1365.958055	10.204000	-4.880000
	285.649338	1365.956863	10.188000	-4.910000
	285.799347	1365.969975	10.198000	-4.790000
	285.899353	1365.968783	10.234000	-4.910000
	285.999358	1365.961631	10.202000	-4.960000
	286.099364	1365.960439	10.206000	-4.910000
	286.150367	1365.959247	10.200000	-4.910000
	286.299376	1365.958055	10.218000	-4.910000
	286.399381	1365.947328	10.212000	-4.990000
	286.499387	1365.947328	10.212000	-4.990000
	286.599392	1365.950904	10.206000	-4.870000
	286.659396	1365.960440	10.220000	-4.820000
	286.799404	1365.966400	10.214000	-4.850000
	286.899410	1365.964016	10.218000	-4.920000
	286.949413	1365.958056	10.192000	-4.950000
	287.049418	1365.964017	10.184000	-4.850000
	287.199427	1365.973553	10.178000	-4.820000
	287.299433	1365.974745	10.206000	-4.890000
	287.399438	1365.980705	10.218000	-4.850000
	287.549447	1365.968786	10.220000	-5.000000
	287.599450	1365.959250	10.196000	-4.980000
	287.749458	1365.960442	10.206000	-4.890000
	287.849464	1365.980708	10.216000	-4.730000
	287.949470	1365.972364	10.228000	-4.970000
	288.049476	1365.966404	10.196000	-4.950000
	288.199484	1365.965212	10.190000	-4.910000
	288.299490	1365.968788	10.216000	-4.870000
	288.403496	1365.966404	10.206000	-4.920000
	288.499501	1365.954484	10.216000	-5.000000
	288.649510	1365.953292	10.182000	-4.910000
	288.749516	1365.950908	10.210000	-4.920000
	288.850522	1365.940180	10.198000	-4.990000
	288.949527	1365.948524	10.206000	-4.830000
	289.049533	1365.942564	10.188000	-4.950000
	289.149539	1365.948525	10.210000	-4.850000
	289.249544	1365.925878	10.204000	-5.090000
	289.349550	1365.931838	10.196000	-4.850000
	289.449556	1365.931838	10.196000	-4.850000
	289.549562	1365.942567	10.212000	-4.810000
	289.649567	1365.956872	10.232000	-4.780000
	289.749573	1365.952104	10.200000	-4.940000
	289.849578	1365.960448	10.220000	-4.830000
	289.962585	1365.969984	10.200000	-4.820000
	290.058590	1365.969984	10.200000	-4.820000
	290.149596	1365.973561	10.176000	-4.870000
	290.249601	1365.959257	10.224000	-5.020000
	290.350607	1365.962833	10.200000	-4.870000
	290.449613	1365.961641	10.204000	-4.910000
	290.554619	1365.961641	10.204000	-4.910000
	290.700627	1365.960449	10.206000	-4.910000
	290.800633	1365.968793	10.216000	-4.830000
	290.899639	1365.958066	10.212000	-4.990000
	290.999644	1365.947338	10.204000	-4.990000
	291.099650	1365.940186	10.182000	-4.960000
	291.199656	1365.937802	10.204000	-4.920000
	291.299662	1365.941378	10.216000	-4.870000
	291.399667	1365.938994	10.226000	-4.920000
	291.499673	1365.938994	10.226000	-4.920000
	291.599679	1365.929458	10.230000	-4.980000
	291.699684	1365.930650	10.204000	-4.890000
	291.799690	1365.938994	10.202000	-4.830000
	291.899696	1365.946147	10.220000	-4.840000
	291.999701	1365.961644	10.200000	-4.770000
	292.099707	1365.956876	10.204000	-4.940000
	292.199713	1365.965220	10.206000	-4.830000
	292.299719	1365.974757	10.216000	-4.820000
	292.399724	1365.962837	10.192000	-5.000000
	292.501730	1365.966413	10.194000	-4.870000
	292.599736	1365.966413	10.194000	-4.870000
	292.699741	1365.962837	10.214000	-4.930000
	292.799747	1365.965221	10.230000	-4.880000
	292.912754	1365.958069	10.198000	-4.960000
	292.999759	1365.962837	10.194000	-4.860000
	293.099764	1365.980719	10.208000	-4.750000
	293.199770	1365.981911	10.224000	-4.890000
	293.299776	1365.958072	10.188000	-5.100000
	293.399782	1365.950920	10.198000	-4.960000
	293.499787	1365.956880	10.202000	-4.850000
	293.599793	1365.956880	10.202000	-4.850000
	293.699799	1365.973570	10.216000	-4.760000
	293.799804	1365.965226	10.216000	-4.970000
	293.899810	1365.966418	10.184000	-4.890000
	293.999816	1365.985491	10.218000	-4.740000
	294.099822	1365.984299	10.196000	-4.910000
	294.199827	1365.969996	10.224000	-5.020000
	294.299833	1365.971188	10.196000	-4.890000
	294.402839	1365.965228	10.186000	-4.950000
	294.499845	1365.972380	10.206000	-4.840000
	294.599850	1365.959268	10.228000	-5.010000
	294.699856	1365.959268	10.228000	-5.010000
	294.799861	1365.948540	10.186000	-4.990000
	294.899868	1365.959269	10.192000	-4.810000
	294.999873	1365.980727	10.220000	-4.720000
	295.099879	1365.981919	10.210000	-4.890000
	295.199884	1365.989072	10.220000	-4.840000
	295.302890	1365.974768	10.212000	-5.020000
	295.400896	1365.971192	10.198000	-4.930000
	295.499902	1365.984305	10.196000	-4.790000
	295.599907	1365.984305	10.196000	-4.790000
	295.699913	1365.980729	10.212000	-4.930000
	295.799919	1365.977153	10.208000	-4.930000
	295.899925	1365.968809	10.196000	-4.970000
	295.999930	1365.971193	10.200000	-4.880000
	296.099936	1365.968809	10.228000	-4.920000
	296.199942	1365.961657	10.198000	-4.960000
	296.305948	1365.966425	10.220000	-4.860000
	296.401953	1365.964041	10.214000	-4.920000
	296.549962	1365.973577	10.224000	-4.820000
	296.649968	1365.970001	10.202000	-4.930000
	296.749973	1365.970001	10.202000	-4.930000
	296.799976	1365.964041	10.188000	-4.950000
	296.949985	1365.959273	10.196000	-4.940000
	297.049990	1365.964041	10.214000	-4.860000
	297.149996	1365.971194	10.232000	-4.840000
	297.250002	1365.971194	10.202000	-4.900000
	297.350008	1365.974770	10.226000	-4.870000
	297.450013	1365.974770	10.194000	-4.900000
	297.550019	1365.974770	10.196000	-4.900000
	297.650024	1365.970002	10.202000	-4.940000
	297.750031	1365.968810	10.192000	-4.910000
	297.850036	1365.968810	10.192000	-4.910000
	297.950042	1365.980731	10.212000	-4.800000
	298.050047	1365.978346	10.208000	-4.920000
	298.150053	1365.979539	10.206000	-4.890000
	298.250059	1365.979539	10.204000	-4.900000
	298.350065	1365.990267	10.202000	-4.810000
	298.450070	1365.990267	10.248000	-4.900000
	298.550076	1365.984307	10.200000	-4.950000
	298.650082	1365.985499	10.196000	-4.890000
	298.753088	1365.986691	10.200000	-4.890000
	298.850093	1365.986691	10.200000	-4.890000
	298.950099	1365.983115	10.222000	-4.930000
	299.050105	1365.964044	10.202000	-5.060000
	299.150110	1365.956892	10.200000	-4.960000
	299.250116	1365.974773	10.212000	-4.750000
	299.350122	1365.973581	10.212000	-4.910000
	299.400125	1365.953318	10.192000	-5.070000
	299.550133	1365.956894	10.204000	-4.870000
	299.650139	1365.967623	10.198000	-4.810000
	299.753145	1365.977159	10.234000	-4.820000
	299.850151	1365.965240	10.214000	-5.000000
	299.954156	1365.966432	10.200000	-4.890000
	300.050162	1365.970008	10.196000	-4.870000
	300.150167	1365.970008	10.196000	-4.870000
	300.250174	1365.968816	10.232000	-4.910000
	300.352179	1365.970008	10.220000	-4.890000
	300.450185	1365.946169	10.180000	-5.100000
	300.554191	1365.937825	10.186000	-4.970000
	300.664197	1365.953322	10.194000	-4.770000
	300.756202	1365.947362	10.206000	-4.950000
	300.850208	1365.946170	10.206000	-4.910000
	300.950213	1365.950938	10.202000	-4.860000
	301.050219	1365.947362	10.218000	-4.930000
	301.150225	1365.937827	10.212000	-4.980000
	301.252231	1365.935443	10.206000	-4.920000
	301.350236	1365.949747	10.192000	-4.780000
	301.450242	1365.949747	10.192000	-4.780000
	301.556248	1365.960476	10.228000	-4.810000
	301.650253	1365.958092	10.180000	-4.920000
	301.750259	1365.967628	10.196000	-4.820000
	301.850265	1365.965244	10.216000	-4.920000
	301.952271	1365.971205	10.214000	-4.850000
	302.100279	1365.968821	10.178000	-4.920000
	302.201285	1365.974781	10.196000	-4.850000
	302.299291	1365.980741	10.192000	-4.850000
	302.399296	1365.975973	10.202000	-4.940000
	302.499302	1365.970013	10.204000	-4.950000
	302.649311	1365.972397	10.194000	-4.880000
	302.751317	1365.978358	10.204000	-4.850000
	302.849322	1365.997432	10.224000	-4.740000
	302.949328	1365.989087	10.210000	-4.970000
	303.049334	1365.991472	10.218000	-4.880000
	303.149339	1365.993856	10.218000	-4.880000
	303.249345	1365.985512	10.196000	-4.970000
	303.349350	1365.990280	10.184000	-4.860000
	303.450356	1365.990280	10.184000	-4.860000
	303.549362	1365.991472	10.206000	-4.890000
	303.649368	1365.981936	10.230000	-4.980000
	303.749373	1365.983128	10.204000	-4.890000
	303.849379	1365.992664	10.206000	-4.820000
	303.951385	1365.995049	10.220000	-4.880000
	304.049391	1365.979553	10.214000	-5.030000
	304.151397	1365.967633	10.190000	-5.000000
	304.249402	1365.954521	10.192000	-5.010000
	304.349408	1365.946177	10.196000	-4.970000
	304.399411	1365.946177	10.196000	-4.970000
	304.550419	1365.955714	10.188000	-4.820000
	304.649425	1365.955714	10.216000	-4.900000
	304.749431	1365.936643	10.202000	-5.060000
	304.849436	1365.949755	10.202000	-4.790000
	304.951442	1365.974790	10.220000	-4.690000
	305.049448	1365.987903	10.230000	-4.790000
	305.149454	1365.986711	10.198000	-4.910000
	305.249459	1365.983135	10.216000	-4.930000
	305.349465	1365.987903	10.198000	-4.860000
	305.449471	1365.983135	10.226000	-4.940000
	305.549477	1365.983135	10.226000	-4.940000
	305.651482	1365.970023	10.192000	-5.010000
	305.749488	1365.975984	10.176000	-4.850000
	305.899497	1365.975984	10.188000	-4.900000
	305.999502	1365.984328	10.206000	-4.830000
	306.099508	1365.997441	10.226000	-4.790000
	306.200514	1365.977178	10.204000	-5.070000
	306.299520	1365.970026	10.204000	-4.960000
	306.449528	1365.987907	10.194000	-4.750000
	306.571535	1365.996252	10.228000	-4.830000
	306.649539	1365.984332	10.192000	-5.000000
	306.802548	1365.965260	10.204000	-5.060000
	306.849551	1365.971221	10.184000	-4.850000
	306.999559	1365.979565	10.206000	-4.830000
	307.104566	1365.971221	10.210000	-4.970000
	307.200571	1365.975989	10.188000	-4.860000
	307.299577	1365.977181	10.208000	-4.890000
	307.401582	1365.990295	10.220000	-4.790000
	307.499588	1365.980758	10.226000	-4.980000
	307.599594	1365.979566	10.194000	-4.910000
	307.699599	1365.983143	10.212000	-4.870000
	307.814606	1365.983143	10.212000	-4.870000
	307.899611	1365.987911	10.218000	-4.860000
	308.000617	1365.987911	10.218000	-4.900000
	308.099622	1365.984335	10.212000	-4.930000
	308.199628	1365.987911	10.190000	-4.870000
	308.299634	1365.991487	10.214000	-4.870000
	308.449642	1365.980759	10.228000	-4.990000
	308.549648	1365.978375	10.194000	-4.920000
	308.599651	1365.989104	10.196000	-4.810000
	308.749660	1365.990296	10.220000	-4.890000
	308.849665	1365.981952	10.214000	-4.970000
	308.949671	1365.967648	10.192000	-5.020000
	309.049677	1365.984337	10.198000	-4.760000
	309.149683	1365.984337	10.198000	-4.900000
	309.249688	1365.984337	10.198000	-4.900000
	309.349694	1365.983145	10.210000	-4.910000
	309.449699	1365.975993	10.188000	-4.960000
	309.549706	1365.975993	10.208000	-4.900000
	309.649711	1365.974801	10.202000	-4.910000
	309.749717	1365.960498	10.210000	-5.020000
	309.849722	1365.977187	10.174000	-4.760000
	309.949728	1365.992684	10.208000	-4.770000
	310.049734	1365.989108	10.206000	-4.930000
	310.153740	1365.980764	10.218000	-4.970000
	310.249745	1365.971228	10.190000	-4.980000
	310.349751	1365.971228	10.190000	-4.980000
	310.449757	1365.977188	10.194000	-4.850000
	310.549763	1365.990302	10.220000	-4.790000
	310.649768	1365.985533	10.222000	-4.940000
	310.749774	1365.977189	10.196000	-4.970000
	310.849780	1365.986726	10.188000	-4.820000
	310.949785	1365.991494	10.224000	-4.860000
	311.052791	1365.997455	10.204000	-4.850000
	311.155797	1365.985535	10.196000	-5.000000
	311.249803	1365.995071	10.208000	-4.820000
	311.349808	1365.995071	10.208000	-4.820000
	311.449814	1365.997455	10.208000	-4.880000
	311.549820	1365.999840	10.202000	-4.880000
	311.649826	1365.993879	10.196000	-4.950000
	311.749831	1365.992687	10.192000	-4.910000
	311.849837	1365.998648	10.200000	-4.850000
	311.949842	1365.984344	10.222000	-5.020000
	312.049849	1365.986728	10.194000	-4.880000
	312.149854	1365.995072	10.188000	-4.830000
	312.249860	1366.015339	10.204000	-4.730000
	312.349865	1366.015339	10.204000	-4.730000
	312.449871	1366.008187	10.214000	-4.960000
	312.549877	1366.008187	10.206000	-4.900000
	312.649883	1366.015339	10.188000	-4.840000
	312.749888	1366.020108	10.204000	-4.860000
	312.849894	1366.008187	10.210000	-5.000000
	312.949900	1365.996267	10.220000	-5.000000
	313.054906	1366.002228	10.188000	-4.850000
	313.149911	1366.009380	10.198000	-4.840000
	313.249917	1366.006996	10.242000	-4.920000
	313.349923	1366.006996	10.242000	-4.920000
	313.449928	1365.986732	10.212000	-5.070000
	313.549934	1365.983156	10.172000	-4.930000
	313.649940	1365.984348	10.206000	-4.890000
	313.749946	1365.989117	10.206000	-4.860000
	313.849951	1365.979581	10.194000	-4.980000
	313.949957	1365.978389	10.178000	-4.910000
	314.049963	1365.992694	10.208000	-4.780000
	314.149969	1365.987926	10.200000	-4.940000
	314.249974	1365.996270	10.212000	-4.830000
	314.349980	1365.996270	10.212000	-4.830000
	314.449986	1365.999847	10.206000	-4.870000
	314.549991	1365.979583	10.156000	-5.070000
	314.649997	1365.980775	10.216000	-4.890000
	314.750003	1365.978391	10.206000	-4.920000
	314.850008	1365.979583	10.190000	-4.890000
	314.957015	1365.971239	10.224000	-4.970000
	315.050020	1365.970047	10.180000	-4.910000
	315.150026	1365.980776	10.212000	-4.810000
	315.250031	1365.984352	10.216000	-4.870000
	315.350037	1365.984352	10.216000	-4.870000
	315.450043	1365.984352	10.212000	-4.900000
	315.550048	1365.966472	10.186000	-5.050000
	315.650054	1365.964088	10.174000	-4.920000
	315.750060	1365.981970	10.194000	-4.750000
	315.850066	1365.967666	10.222000	-5.020000
	315.950071	1365.956938	10.208000	-4.990000
	316.050077	1365.940251	10.206000	-5.040000
	316.151083	1365.942635	10.196000	-4.880000
	316.250089	1365.956940	10.212000	-4.780000
	316.350094	1365.956940	10.212000	-4.780000
	316.450100	1365.947404	10.208000	-4.980000
	316.550106	1365.934292	10.214000	-5.010000
	316.650112	1365.931908	10.186000	-4.920000
	316.750117	1365.939061	10.194000	-4.840000
	316.853123	1365.950981	10.212000	-4.800000
	316.950129	1365.946213	10.214000	-4.940000
	317.050134	1365.953365	10.186000	-4.840000
	317.150140	1365.942638	10.204000	-4.990000
	317.250146	1365.942638	10.204000	-4.990000
	317.350152	1365.958135	10.206000	-4.770000
	317.500160	1365.966479	10.194000	-4.830000
	317.600166	1365.958135	10.194000	-4.970000
	317.701171	1365.958135	10.200000	-4.900000
	317.800177	1365.972440	10.180000	-4.780000
	317.900183	1365.980785	10.200000	-4.830000
	318.000189	1365.983169	10.206000	-4.880000
	318.100194	1365.989129	10.192000	-4.850000
	318.200200	1365.985553	10.186000	-4.930000
	318.250203	1365.985553	10.186000	-4.930000
	318.400211	1365.981977	10.188000	-4.930000
	318.500217	1365.990322	10.182000	-4.830000
	318.600223	1366.003435	10.212000	-4.790000
	318.700229	1365.991515	10.222000	-5.000000
	318.800234	1365.981979	10.202000	-4.980000
	318.900240	1365.977210	10.194000	-4.940000
	319.000246	1365.981979	10.212000	-4.860000
	319.100252	1365.981979	10.220000	-4.900000
	319.202258	1365.981979	10.220000	-4.900000
	319.300263	1365.981979	10.206000	-4.900000
	319.400269	1365.966483	10.200000	-5.030000
	319.500275	1365.978404	10.198000	-4.800000
	319.600280	1365.983172	10.218000	-4.860000
	319.700286	1365.985556	10.218000	-4.880000
	319.799292	1365.978404	10.200000	-4.960000
	319.899297	1365.961717	10.200000	-5.040000
	319.999303	1365.980790	10.180000	-4.740000
	320.101309	1365.997480	10.188000	-4.760000
	320.199315	1365.997480	10.188000	-4.760000
	320.299320	1366.014170	10.216000	-4.760000
	320.399326	1366.009402	10.200000	-4.940000
	320.499331	1365.998673	10.218000	-4.990000
	320.600338	1365.990329	10.210000	-4.970000
	320.749346	1365.986753	10.176000	-4.930000
	320.849351	1365.990329	10.214000	-4.870000
	320.955358	1366.004635	10.218000	-4.780000
	321.049363	1365.991523	10.208000	-5.010000
	321.152369	1365.991523	10.204000	-4.900000
	321.199372	1365.978411	10.182000	-5.010000
	321.312378	1365.999869	10.212000	-4.720000
	321.449386	1366.009406	10.230000	-4.820000
	321.550392	1366.004638	10.200000	-4.940000
	321.649397	1365.987950	10.200000	-5.040000
	321.749403	1365.992718	10.184000	-4.860000
	321.849409	1365.992718	10.184000	-4.860000
	321.949415	1365.985566	10.190000	-4.960000
	322.050420	1365.991526	10.186000	-4.850000
	322.199429	1365.998679	10.202000	-4.840000
	322.299435	1366.005831	10.208000	-4.840000
	322.399440	1365.998679	10.204000	-4.960000
	322.499446	1365.983183	10.190000	-5.030000
	322.599452	1365.989144	10.188000	-4.850000
	322.699458	1366.001065	10.206000	-4.800000
	322.799463	1365.995105	10.220000	-4.950000
	322.899469	1365.990336	10.208000	-4.940000
	322.999475	1365.972457	10.184000	-5.050000
	323.149483	1365.966497	10.186000	-4.950000
	323.249489	1365.977225	10.184000	-4.810000
	323.352495	1365.987954	10.214000	-4.810000
	323.451500	1365.998683	10.202000	-4.810000
	323.549506	1365.981995	10.220000	-5.040000
	323.649512	1365.981995	10.188000	-4.900000
	323.749517	1365.981995	10.188000	-4.900000
	323.849523	1365.977227	10.208000	-4.940000
	323.950529	1365.959348	10.208000	-5.050000
	324.049535	1365.952196	10.192000	-4.960000
	324.149540	1365.958156	10.202000	-4.850000
	324.249546	1365.960540	10.208000	-4.880000
	324.352552	1365.960540	10.222000	-4.900000
	324.464558	1365.960540	10.222000	-4.900000
	324.549563	1365.958156	10.198000	-4.920000
	324.649569	1365.959348	10.192000	-4.890000
	324.751575	1365.970077	10.206000	-4.810000
	324.849580	1365.987958	10.212000	-4.750000
	324.949586	1365.973655	10.194000	-5.020000
	325.049592	1365.956967	10.202000	-5.040000
	325.151597	1365.966504	10.214000	-4.820000
	325.251604	1365.960544	10.216000	-4.950000
	325.354609	1365.967696	10.196000	-4.840000
	325.399612	1365.967696	10.196000	-4.840000
	325.551620	1365.985578	10.196000	-4.750000
	325.649626	1365.991538	10.218000	-4.850000
	325.750632	1365.990346	10.220000	-4.910000
	325.849638	1365.989154	10.194000	-4.910000
	325.999646	1365.985578	10.188000	-4.930000
	326.099652	1365.998691	10.208000	-4.790000
	326.199657	1365.993923	10.214000	-4.940000
	326.299664	1365.982003	10.224000	-5.000000
	326.399669	1365.965315	10.192000	-5.040000
	326.499675	1365.972467	10.202000	-4.840000
	326.599680	1365.982004	10.188000	-4.820000
	326.699686	1365.983196	10.212000	-4.890000
	326.801692	1365.983196	10.212000	-4.890000
	326.899698	1365.982004	10.216000	-4.910000
	326.999703	1365.968892	10.218000	-5.010000
	327.099709	1365.977237	10.192000	-4.830000
	327.199715	1365.980813	10.212000	-4.870000
	327.299721	1365.974853	10.236000	-4.950000
	327.399726	1365.970085	10.208000	-4.940000
	327.499732	1365.968893	10.206000	-4.910000
	327.599738	1365.982006	10.188000	-4.790000
	327.699743	1365.999888	10.212000	-4.750000
	327.802749	1365.990351	10.214000	-4.980000
	327.899755	1365.989159	10.226000	-4.910000
	327.999761	1365.985583	10.206000	-4.930000
	328.099766	1365.985583	10.206000	-4.930000
	328.201772	1365.980815	10.186000	-4.940000
	328.299778	1365.993928	10.184000	-4.790000
	328.399784	1366.001081	10.210000	-4.840000
	328.499789	1366.001081	10.216000	-4.900000
	328.602795	1365.998697	10.214000	-4.920000
	328.699800	1365.991544	10.214000	-4.960000
	328.811807	1365.996313	10.202000	-4.860000
	328.899812	1366.013003	10.180000	-4.760000
	328.999818	1366.013003	10.180000	-4.760000
	329.099823	1366.016579	10.248000	-4.870000
	329.199829	1366.020155	10.222000	-4.870000
	329.304835	1366.007043	10.218000	-5.010000
	329.400841	1365.995123	10.206000	-5.000000
	329.499846	1365.999891	10.190000	-4.860000
	329.599852	1366.009428	10.198000	-4.820000
	329.703858	1366.005852	10.224000	-4.930000
	329.799863	1365.998700	10.222000	-4.960000
	329.899869	1366.003468	10.200000	-4.860000
	329.999875	1366.003468	10.200000	-4.860000
	330.099881	1366.004660	10.194000	-4.890000
	330.199886	1366.009428	10.202000	-4.860000
	330.299892	1366.003468	10.218000	-4.950000
	330.399898	1366.005852	10.222000	-4.880000
	330.499904	1365.996316	10.206000	-4.980000
	330.603909	1365.990356	10.202000	-4.950000
	330.699915	1365.989164	10.206000	-4.910000
	330.831923	1365.989164	10.206000	-4.910000
	330.999932	1365.991548	10.210000	-4.880000
	331.099938	1365.996316	10.200000	-4.860000
	331.199944	1365.997508	10.216000	-4.890000
	331.299949	1365.982012	10.208000	-5.030000
	331.399955	1365.978436	10.178000	-4.930000
	331.503961	1365.985589	10.184000	-4.840000
	331.550964	1365.992741	10.206000	-4.840000
	331.699972	1365.995125	10.194000	-4.880000
	331.799978	1365.987973	10.208000	-4.960000
	331.899983	1365.989165	10.202000	-4.890000
	331.999990	1365.990357	10.204000	-4.890000
	332.050992	1365.990357	10.204000	-4.890000
	332.214002	1365.967710	10.180000	-5.090000
	332.300006	1365.966518	10.198000	-4.910000
	332.400012	1365.961750	10.198000	-4.940000
	332.507019	1365.956982	10.194000	-4.940000
	332.617024	1365.967711	10.212000	-4.810000
	332.700029	1365.973671	10.184000	-4.850000
	332.800035	1365.985592	10.226000	-4.800000
	332.900041	1365.985592	10.226000	-4.800000
	333.002047	1365.977248	10.202000	-4.970000
	333.100052	1365.973672	10.194000	-4.930000
	333.200058	1365.989169	10.200000	-4.770000
	333.300064	1365.992745	10.228000	-4.870000
	333.400069	1366.001090	10.184000	-4.830000
	333.501075	1365.997514	10.220000	-4.930000
	333.600081	1365.989170	10.210000	-4.970000
	333.700087	1365.979634	10.192000	-4.980000
	333.800092	1365.976057	10.208000	-4.930000
	333.900098	1365.976057	10.208000	-4.930000
	334.000104	1365.989171	10.226000	-4.790000
	334.100110	1365.995131	10.224000	-4.850000
	334.252118	1365.986787	10.200000	-4.970000
	334.350124	1365.985595	10.212000	-4.910000
	334.452130	1365.979635	10.186000	-4.950000
	334.550135	1365.990363	10.194000	-4.810000
	334.652141	1365.982019	10.192000	-4.970000
	334.752147	1365.976059	10.224000	-4.950000
	334.850152	1365.983212	10.230000	-4.840000
	334.964159	1365.983212	10.230000	-4.840000
	335.050164	1365.985596	10.222000	-4.880000
	335.150169	1365.986788	10.212000	-4.890000
	335.250175	1365.985596	10.182000	-4.910000
	335.352181	1365.991556	10.198000	-4.850000
	335.500189	1366.001093	10.206000	-4.820000
	335.600195	1365.991557	10.234000	-4.980000
	335.700201	1365.980829	10.202000	-4.990000
	335.800207	1365.978445	10.186000	-4.920000
	335.900212	1365.989173	10.204000	-4.810000
	336.000218	1365.998710	10.224000	-4.820000
	336.100224	1365.998710	10.220000	-4.900000
	336.200230	1365.989174	10.216000	-4.980000
	336.300235	1365.970102	10.224000	-5.060000
	336.403241	1365.964142	10.202000	-4.950000
	336.500247	1365.970103	10.188000	-4.850000
	336.600253	1365.970103	10.188000	-4.850000
	336.700258	1365.974871	10.216000	-4.860000
	336.800264	1365.979639	10.218000	-4.860000
	336.900270	1365.965335	10.198000	-5.020000
	337.000275	1365.953416	10.224000	-5.000000
	337.100281	1365.959376	10.206000	-4.850000
	337.200287	1365.965336	10.188000	-4.850000
	337.299293	1366.135938	10.454000	-3.470000
	337.400298	1366.069190	10.312000	-5.460000
	337.499304	1366.017938	10.296000	-5.330000
	337.599309	1365.978605	10.300000	-5.230000
	337.699316	1365.947615	10.290000	-5.160000
	337.799321	1365.947615	10.290000	-5.160000
	337.899327	1365.911859	10.318000	-5.200000
	337.999332	1365.868954	10.284000	-5.260000
	338.099338	1365.846308	10.288000	-5.090000
	338.199344	1365.842733	10.298000	-4.930000
	338.300350	1365.822471	10.312000	-5.070000
	338.399355	1365.808169	10.286000	-5.020000
	338.499361	1365.811745	10.292000	-4.870000
	338.599367	1365.815321	10.300000	-4.870000
	338.699373	1365.821280	10.312000	-4.850000
	338.799378	1365.803403	10.302000	-5.050000
	338.899384	1365.783142	10.290000	-5.070000
	338.999390	1365.784334	10.300000	-4.890000
	339.099395	1365.791486	10.294000	-4.840000
	339.199401	1365.797445	10.306000	-4.850000
	339.299407	1365.797445	10.314000	-4.900000
	339.399413	1365.797445	10.314000	-4.900000
	339.499418	1365.786719	10.280000	-4.990000
	339.599424	1365.783143	10.288000	-4.930000
	339.699430	1365.789102	10.294000	-4.850000
	339.800436	1365.781951	10.326000	-4.960000
	339.899441	1365.767650	10.286000	-5.020000
	340.000447	1365.773609	10.298000	-4.850000
	340.099452	1365.790296	10.304000	-4.760000
	340.200459	1365.783145	10.302000	-4.960000
	340.299464	1365.783145	10.290000	-4.900000
	340.399470	1365.786721	10.282000	-4.870000
	340.499475	1365.804600	10.284000	-4.750000
	340.600482	1365.803408	10.312000	-4.910000
	340.699487	1365.797449	10.308000	-4.950000
	340.799493	1365.779572	10.282000	-5.050000
	340.899498	1365.771229	10.290000	-4.970000
	341.003504	1365.771229	10.290000	-4.970000
	341.099510	1365.777188	10.274000	-4.850000
	341.200516	1365.778380	10.292000	-4.890000
	341.299521	1365.768846	10.300000	-4.980000
	341.399527	1365.765270	10.314000	-4.930000
	341.499533	1365.758119	10.286000	-4.960000
	341.599538	1365.772422	10.286000	-4.780000
	341.699544	1365.775998	10.284000	-4.870000
	341.799550	1365.777190	10.302000	-4.890000
	341.899556	1365.773614	10.288000	-4.930000
	341.999561	1365.775998	10.290000	-4.880000
	342.102567	1365.791493	10.302000	-4.770000
	342.199573	1365.777191	10.320000	-5.020000
	342.299579	1365.778383	10.294000	-4.890000
	342.399584	1365.778383	10.294000	-4.890000
	342.499590	1365.779575	10.278000	-4.890000
	342.599596	1365.781959	10.296000	-4.880000
	342.699601	1365.789110	10.294000	-4.840000
	342.799607	1365.789110	10.294000	-4.900000
	342.899613	1365.779575	10.296000	-4.980000
	342.999619	1365.783151	10.276000	-4.870000
	343.099624	1365.781959	10.302000	-4.910000
	343.199630	1365.781959	10.294000	-4.900000
	343.299635	1365.784343	10.308000	-4.880000
	343.399642	1365.778384	10.296000	-4.950000
	343.499647	1365.783151	10.282000	-4.860000
	343.599653	1365.789111	10.282000	-4.850000
	343.699658	1365.790303	10.310000	-4.890000
	343.799664	1365.785535	10.300000	-4.940000
	343.899670	1365.785535	10.300000	-4.940000
	344.001676	1365.785535	10.294000	-4.900000
	344.099681	1365.792687	10.286000	-4.840000
	344.199687	1365.783152	10.316000	-4.980000
	344.299693	1365.774809	10.286000	-4.970000
	344.399699	1365.770042	10.294000	-4.940000
	344.499704	1365.779577	10.300000	-4.820000
	344.599710	1365.779577	10.292000	-4.900000
	344.699716	1365.758125	10.322000	-5.080000
	344.799721	1365.749782	10.278000	-4.970000
	344.899727	1365.748590	10.284000	-4.910000
	344.999733	1365.754550	10.300000	-4.850000
	345.099739	1365.758125	10.318000	-4.870000
	345.199744	1365.735482	10.288000	-5.090000
	345.299750	1365.731907	10.280000	-4.930000
	345.399756	1365.731907	10.280000	-4.930000
	345.499762	1365.729523	10.276000	-4.920000
	345.599767	1365.760514	10.286000	-4.640000
	345.699773	1365.773625	10.308000	-4.790000
	345.799778	1365.764091	10.288000	-4.980000
	345.901784	1365.767666	10.300000	-4.870000
	345.999790	1365.755748	10.286000	-5.000000
	346.099796	1365.765283	10.302000	-4.820000
	346.199801	1365.760516	10.300000	-4.940000
	346.299807	1365.755749	10.294000	-4.940000
	346.399813	1365.764092	10.282000	-4.830000
	346.499819	1365.765284	10.316000	-4.890000
	346.599824	1365.767667	10.298000	-4.880000
	346.699830	1365.767667	10.286000	-4.900000
	346.799836	1365.781970	10.290000	-4.780000
	346.899842	1365.768860	10.306000	-5.010000
	346.999847	1365.768860	10.306000	-5.010000
	347.099853	1365.764093	10.288000	-4.940000
	347.199859	1365.758134	10.298000	-4.950000
	347.299864	1365.765285	10.282000	-4.840000
	347.399870	1365.771245	10.294000	-4.850000
	347.499876	1365.768861	10.296000	-4.920000
	347.599882	1365.761710	10.298000	-4.960000
	347.699887	1365.767669	10.292000	-4.850000
	347.800893	1365.777205	10.298000	-4.820000
	347.899899	1365.768862	10.306000	-4.970000
	347.999905	1365.761711	10.288000	-4.960000
	348.099910	1365.771246	10.294000	-4.820000
	348.199916	1365.777205	10.294000	-4.850000
	348.299922	1365.772438	10.318000	-4.940000
	348.399928	1365.772438	10.282000	-4.900000
	348.499933	1365.772438	10.282000	-4.900000
	348.599939	1365.773630	10.272000	-4.890000
	348.700944	1365.774822	10.306000	-4.890000
	348.799950	1365.768863	10.294000	-4.950000
	348.899956	1365.760520	10.284000	-4.970000
	348.999962	1365.756944	10.282000	-4.930000
	349.099967	1365.753369	10.314000	-4.930000
	349.199973	1365.753369	10.304000	-4.900000
	349.299979	1365.743834	10.280000	-4.980000
	349.399985	1365.750986	10.278000	-4.840000
	349.499990	1365.759329	10.296000	-4.830000
	349.599996	1365.761712	10.298000	-4.880000
	349.700002	1365.746219	10.296000	-5.030000
	349.800007	1365.753370	10.292000	-4.840000
	349.900013	1365.750987	10.288000	-4.920000
	350.000019	1365.750987	10.288000	-4.920000
	350.100025	1365.756946	10.308000	-4.850000
	350.200030	1365.758138	10.302000	-4.890000
	350.300036	1365.733111	10.302000	-5.110000
	350.400042	1365.748606	10.266000	-4.770000
	350.500048	1365.756949	10.302000	-4.830000
	350.600053	1365.755757	10.298000	-4.910000
	350.702059	1365.759333	10.296000	-4.870000
	350.800065	1365.773636	10.278000	-4.780000
	350.900071	1365.779595	10.280000	-4.850000
	351.000076	1365.779595	10.302000	-4.900000
	351.100082	1365.780787	10.290000	-4.890000
	351.250091	1365.784363	10.284000	-4.870000
	351.350096	1365.798666	10.280000	-4.780000
	351.450102	1365.802242	10.306000	-4.870000
	351.550107	1365.799858	10.288000	-4.920000
	351.650113	1365.799858	10.288000	-4.920000
	351.750119	1365.791515	10.284000	-4.970000
	351.850125	1365.803434	10.310000	-4.800000
	351.950130	1365.805818	10.300000	-4.880000
	352.050136	1365.793900	10.290000	-5.000000
	352.150142	1365.791516	10.286000	-4.920000
	352.250148	1365.799859	10.302000	-4.830000
	352.350153	1365.803435	10.312000	-4.870000
	352.450159	1365.783174	10.304000	-5.070000
	352.550165	1365.783174	10.274000	-4.900000
	352.650170	1365.792710	10.294000	-4.820000
	352.750176	1365.798669	10.310000	-4.850000
	352.850182	1365.793902	10.292000	-4.940000
	352.950188	1365.773641	10.290000	-5.070000
	353.052194	1365.774833	10.282000	-4.890000
	353.150199	1365.774833	10.282000	-4.890000
	353.250205	1365.785560	10.284000	-4.810000
	353.350211	1365.777217	10.284000	-4.970000
	353.450216	1365.779601	10.298000	-4.880000
	353.550222	1365.783177	10.286000	-4.870000
	353.650228	1365.773642	10.296000	-4.980000
	353.750234	1365.768875	10.308000	-4.940000
	353.850239	1365.761724	10.286000	-4.960000
	353.950245	1365.755765	10.284000	-4.950000
	354.050251	1365.773644	10.298000	-4.750000
	354.152256	1365.774836	10.308000	-4.890000
	354.250262	1365.773644	10.306000	-4.910000
	354.350268	1365.765301	10.276000	-4.970000
	354.450274	1365.768877	10.290000	-4.870000
	354.550279	1365.774836	10.282000	-4.850000
	354.650285	1365.777220	10.298000	-4.880000
	354.749290	1365.771261	10.286000	-4.950000
	354.849296	1365.771261	10.286000	-4.950000
	354.951302	1365.786756	10.286000	-4.770000
	355.049308	1365.792715	10.322000	-4.850000
	355.149313	1365.784372	10.294000	-4.970000
	355.249319	1365.780797	10.286000	-4.930000
	355.349325	1365.785564	10.298000	-4.860000
	355.449331	1365.785564	10.302000	-4.900000
	355.549336	1365.778413	10.310000	-4.960000
	355.649342	1365.770070	10.288000	-4.970000
	355.749348	1365.776030	10.294000	-4.850000
	355.849353	1365.780797	10.314000	-4.860000
	355.949359	1365.777222	10.328000	-4.930000
	356.049365	1365.781989	10.306000	-4.860000
	356.149371	1365.774838	10.292000	-4.960000
	356.249376	1365.774838	10.292000	-4.960000
	356.349382	1365.790333	10.322000	-4.770000
	356.449388	1365.791525	10.314000	-4.890000
	356.549394	1365.777223	10.294000	-5.020000
	356.649399	1365.771264	10.288000	-4.950000
	356.749405	1365.785567	10.306000	-4.780000
	356.850411	1365.780800	10.312000	-4.940000
	356.949417	1365.774841	10.298000	-4.950000
	357.049422	1365.778416	10.278000	-4.870000
	357.149428	1365.773649	10.316000	-4.940000
	357.249434	1365.772457	10.304000	-4.910000
	357.349439	1365.754580	10.320000	-5.050000
	357.449445	1365.754580	10.290000	-4.900000
	357.549451	1365.753388	10.318000	-4.910000
	357.649457	1365.758156	10.302000	-4.860000
	357.749462	1365.770075	10.294000	-4.800000
	357.852468	1365.785570	10.296000	-4.770000
	357.949474	1365.785570	10.296000	-4.770000
	358.049479	1365.791530	10.322000	-4.850000
	358.149485	1365.792721	10.324000	-4.890000
	358.249491	1365.786762	10.288000	-4.950000
	358.349496	1365.809410	10.294000	-4.710000
	358.449502	1365.799875	10.306000	-4.980000
	358.551508	1365.792724	10.314000	-4.960000
	358.649514	1365.795108	10.286000	-4.880000
	358.749519	1365.809411	10.296000	-4.780000
	358.849525	1365.804643	10.304000	-4.940000
	358.949531	1365.786766	10.296000	-5.050000
	359.049537	1365.785574	10.294000	-4.910000
	359.149542	1365.791534	10.312000	-4.850000
	359.249548	1365.771273	10.300000	-5.070000
	359.349554	1365.768890	10.288000	-4.920000
	359.449559	1365.773657	10.304000	-4.860000
	359.549565	1365.773657	10.304000	-4.860000
	359.649571	1365.776041	10.306000	-4.880000
	359.755577	1365.756972	10.308000	-5.060000
	359.849582	1365.770083	10.308000	-4.790000
	359.949588	1365.778427	10.308000	-4.830000
	360.049594	1365.766508	10.282000	-5.000000
	360.149600	1365.759357	10.286000	-4.960000
	360.249605	1365.777236	10.288000	-4.750000
	360.349611	1365.770085	10.306000	-4.960000
	360.449616	1365.760551	10.294000	-4.980000
	360.549623	1365.761743	10.300000	-4.890000
	360.657629	1365.762935	10.284000	-4.890000
	360.751634	1365.778430	10.316000	-4.770000
	360.849639	1365.790349	10.306000	-4.800000
	360.949645	1365.790349	10.306000	-4.800000
	361.049651	1365.791541	10.284000	-4.890000
	361.149657	1365.799884	10.310000	-4.830000
	361.249662	1365.780815	10.314000	-5.060000
	361.349668	1365.780815	10.290000	-4.900000
	361.449674	1365.766513	10.276000	-5.020000
	361.549680	1365.773665	10.294000	-4.840000
	361.654685	1365.785584	10.314000	-4.800000
	361.749691	1365.784392	10.298000	-4.910000
	361.849697	1365.784392	10.298000	-4.910000
	361.949702	1365.756982	10.294000	-5.130000
	362.049708	1365.764133	10.290000	-4.840000
	362.149714	1365.770092	10.298000	-4.850000
	362.249720	1365.780820	10.312000	-4.810000
	362.349725	1365.779628	10.324000	-4.910000
	362.449731	1365.782011	10.286000	-4.880000
	362.552737	1365.780820	10.296000	-4.910000
	362.649743	1365.785587	10.304000	-4.860000
	362.749748	1365.787971	10.318000	-4.880000
	362.849754	1365.787971	10.318000	-4.880000
	362.950759	1365.776053	10.288000	-5.000000
	363.049765	1365.780820	10.284000	-4.860000
	363.149771	1365.786780	10.312000	-4.850000
	363.249777	1365.797507	10.310000	-4.810000
	363.349782	1365.784397	10.284000	-5.010000
	363.449788	1365.773670	10.284000	-4.990000
	363.553794	1365.776054	10.314000	-4.880000
	363.649800	1365.777246	10.292000	-4.890000
	363.749805	1365.770095	10.302000	-4.960000
	363.849811	1365.770095	10.302000	-4.960000
	363.949817	1365.773671	10.290000	-4.870000
	364.099825	1365.791550	10.290000	-4.750000
	364.199831	1365.796317	10.284000	-4.860000
	364.249834	1365.787974	10.282000	-4.970000
	364.401843	1365.780823	10.288000	-4.960000
	364.499848	1365.783207	10.286000	-4.880000
	364.599854	1365.799894	10.286000	-4.760000
	364.699860	1365.798703	10.304000	-4.910000
	364.799865	1365.789168	10.294000	-4.980000
	364.899871	1365.791552	10.284000	-4.880000
	364.949874	1365.791552	10.284000	-4.880000
	365.099883	1365.790360	10.302000	-4.910000
	365.199888	1365.785592	10.312000	-4.940000
	365.299894	1365.779633	10.296000	-4.950000
	365.399900	1365.773674	10.278000	-4.950000
	365.499906	1365.773674	10.286000	-4.900000
	365.599911	1365.759372	10.322000	-5.020000
	365.699917	1365.755797	10.292000	-4.930000
	365.799922	1365.759372	10.290000	-4.870000
	365.900928	1365.768907	10.292000	-4.820000
	366.000934	1365.768907	10.292000	-4.820000
	366.099940	1365.755798	10.334000	-5.010000
	366.199945	1365.753414	10.306000	-4.920000
	366.299951	1365.761757	10.292000	-4.830000
	366.399957	1365.764141	10.306000	-4.880000
	366.499963	1365.768908	10.314000	-4.860000
	366.600968	1365.767716	10.310000	-4.910000
	366.699974	1365.760565	10.270000	-4.960000
	366.800980	1365.767717	10.294000	-4.840000
	366.901986	1365.771292	10.294000	-4.870000
	366.999991	1365.771292	10.294000	-4.870000
	367.099997	1365.755799	10.310000	-5.030000
	367.200003	1365.755799	10.268000	-4.900000
	367.300008	1365.764142	10.276000	-4.830000
	367.400014	1365.761759	10.302000	-4.920000
	367.500020	1365.755799	10.286000	-4.950000
	367.600026	1365.755799	10.310000	-4.900000
	367.700031	1365.753416	10.314000	-4.920000
	367.800037	1365.745073	10.286000	-4.970000
	367.900043	1365.754608	10.304000	-4.820000
	368.000049	1365.753416	10.308000	-4.910000
	368.100054	1365.751033	10.290000	-4.920000
	368.200060	1365.749841	10.290000	-4.910000
	368.300066	1365.748649	10.308000	-4.910000
	368.400071	1365.736731	10.268000	-5.000000
	368.500077	1365.745074	10.294000	-4.830000
	368.600083	1365.749842	10.318000	-4.860000
	368.700089	1365.749842	10.318000	-4.860000
	368.801094	1365.748650	10.284000	-4.910000
	368.900100	1365.758185	10.288000	-4.820000
	369.000106	1365.754609	10.322000	-4.930000
	369.100111	1365.747458	10.306000	-4.960000
	369.200117	1365.762953	10.276000	-4.770000
	369.300123	1365.776064	10.308000	-4.790000
	369.400128	1365.766530	10.296000	-4.980000
	369.500134	1365.765338	10.282000	-4.910000
	369.600140	1365.779641	10.304000	-4.780000
	369.700146	1365.770106	10.316000	-4.980000
	369.800151	1365.771298	10.300000	-4.890000
	369.900157	1365.783217	10.294000	-4.800000
	370.000163	1365.789177	10.332000	-4.850000
	370.100169	1365.789177	10.332000	-4.850000
	370.200174	1365.777258	10.302000	-5.000000
	370.300180	1365.783218	10.296000	-4.850000
	370.400186	1365.780834	10.312000	-4.920000
	370.500191	1365.771300	10.300000	-4.980000
	370.600197	1365.792755	10.294000	-4.720000
	370.700203	1365.798714	10.318000	-4.850000
	370.800209	1365.779645	10.290000	-5.060000
	370.900214	1365.774878	10.290000	-4.940000
	371.000220	1365.767727	10.318000	-4.960000
	371.100226	1365.765343	10.296000	-4.920000
	371.200232	1365.761768	10.280000	-4.930000
	371.300237	1365.768919	10.288000	-4.840000
	371.400243	1365.768919	10.288000	-4.840000
	371.500248	1365.748659	10.314000	-5.070000
	371.600255	1365.747467	10.284000	-4.910000
	371.702260	1365.754618	10.302000	-4.840000
	371.800266	1365.737934	10.304000	-5.040000
	371.900271	1365.735550	10.300000	-4.920000
	372.000277	1365.740317	10.314000	-4.860000
	372.100283	1365.743893	10.288000	-4.870000
	372.199289	1365.739126	10.304000	-4.940000
	372.299294	1365.733167	10.304000	-4.950000
	372.399300	1365.728399	10.288000	-4.940000
	372.499306	1365.743894	10.314000	-4.770000
	372.599311	1365.749853	10.306000	-4.850000
	372.699317	1365.747470	10.278000	-4.920000
	372.799323	1365.770117	10.312000	-4.710000
	372.899329	1365.770117	10.312000	-4.710000
	372.999334	1365.774884	10.290000	-4.860000
	373.099340	1365.766541	10.288000	-4.970000
	373.199346	1365.782036	10.300000	-4.770000
	373.299352	1365.776077	10.324000	-4.950000
	373.399357	1365.768926	10.292000	-4.960000
	373.499363	1365.777269	10.316000	-4.830000
	373.599369	1365.773694	10.308000	-4.930000
	373.699375	1365.773694	10.292000	-4.900000
	373.799380	1365.789189	10.310000	-4.770000
	373.899386	1365.773695	10.314000	-5.030000
	373.999392	1365.785615	10.282000	-4.800000
	374.099397	1365.772505	10.316000	-5.010000
	374.199403	1365.768929	10.286000	-4.930000
	374.299409	1365.779656	10.302000	-4.810000
	374.399415	1365.778464	10.316000	-4.910000
	374.499420	1365.778464	10.316000	-4.910000
	374.599426	1365.784424	10.290000	-4.850000
	374.699431	1365.782040	10.340000	-4.920000
	374.799438	1365.767738	10.296000	-5.020000
	374.899443	1365.774890	10.314000	-4.840000
	374.999449	1365.767739	10.310000	-4.960000
	375.149457	1365.771314	10.294000	-4.870000
	375.249463	1365.776082	10.298000	-4.860000
	375.349469	1365.765355	10.326000	-4.990000
	375.449474	1365.782042	10.284000	-4.760000
	375.549480	1365.783234	10.326000	-4.890000
	375.649486	1365.777275	10.298000	-4.950000
	375.749492	1365.782043	10.290000	-4.860000
	375.849497	1365.776083	10.320000	-4.950000
	375.899500	1365.764165	10.290000	-5.000000
	376.049509	1365.764165	10.290000	-5.000000
	376.149515	1365.783236	10.300000	-4.740000
	376.249520	1365.766551	10.306000	-5.040000
	376.299523	1365.768935	10.288000	-4.880000
	376.449532	1365.785622	10.330000	-4.760000
	376.549538	1365.779663	10.276000	-4.950000
	376.649543	1365.797542	10.322000	-4.750000
	376.749549	1365.790391	10.298000	-4.960000
	376.850554	1365.792775	10.282000	-4.880000
	376.949560	1365.802310	10.310000	-4.820000
	377.049566	1365.785625	10.302000	-5.040000
	377.149572	1365.779665	10.302000	-4.950000
	377.249578	1365.779665	10.330000	-4.900000
	377.349583	1365.768939	10.270000	-4.990000
	377.449589	1365.789202	10.312000	-4.730000
	377.549595	1365.778476	10.332000	-4.990000
	377.649601	1365.783243	10.292000	-4.860000
	377.749606	1365.783243	10.292000	-4.860000
	377.850612	1365.793970	10.312000	-4.810000
	377.949617	1365.785627	10.286000	-4.970000
	378.049623	1365.784436	10.284000	-4.910000
	378.149629	1365.784436	10.308000	-4.900000
	378.249635	1365.774901	10.286000	-4.980000
	378.349640	1365.776093	10.294000	-4.890000
	378.449646	1365.761791	10.296000	-5.020000
	378.549652	1365.759407	10.296000	-4.920000
	378.649658	1365.768943	10.304000	-4.820000
	378.749663	1365.752258	10.290000	-5.040000
	378.852669	1365.767752	10.280000	-4.770000
	378.951675	1365.770136	10.310000	-4.880000
	379.049680	1365.765369	10.294000	-4.940000
	379.149686	1365.768944	10.310000	-4.870000
	379.249692	1365.755835	10.298000	-5.010000
	379.349698	1365.755835	10.298000	-5.010000
	379.449703	1365.748684	10.282000	-4.960000
	379.549709	1365.762987	10.324000	-4.780000
	379.649715	1365.749877	10.294000	-5.010000
	379.749721	1365.765372	10.284000	-4.770000
	379.849726	1365.760604	10.306000	-4.940000
	379.949732	1365.762988	10.286000	-4.880000
	380.049737	1365.773715	10.310000	-4.810000
	380.149744	1365.758222	10.288000	-5.030000
	380.249749	1365.762989	10.296000	-4.860000
	380.349755	1365.772524	10.306000	-4.820000
	380.449760	1365.774908	10.298000	-4.880000
	380.549766	1365.780868	10.306000	-4.850000
	380.651772	1365.767758	10.306000	-5.010000
	380.749778	1365.772525	10.278000	-4.860000
	380.849783	1365.761799	10.304000	-4.990000
	380.949789	1365.761799	10.304000	-4.990000
	381.049795	1365.765374	10.310000	-4.870000
	381.149801	1365.788022	10.280000	-4.710000
	381.249806	1365.784446	10.310000	-4.930000
	381.349812	1365.785638	10.290000	-4.890000
	381.399815	1365.796365	10.304000	-4.810000
	381.549823	1365.795173	10.308000	-4.910000
	381.652829	1365.785639	10.298000	-4.980000
	381.749835	1365.796366	10.306000	-4.810000
	381.849841	1365.783256	10.296000	-5.010000
	381.949846	1365.789215	10.282000	-4.850000
	382.049852	1365.785640	10.306000	-4.930000
	382.149858	1365.773722	10.288000	-5.000000
	382.249864	1365.782065	10.300000	-4.830000
	382.349869	1365.782065	10.300000	-4.830000
	382.449875	1365.792792	10.310000	-4.810000
	382.549881	1365.793984	10.294000	-4.890000
	382.649887	1365.807095	10.314000	-4.790000
	382.749892	1365.799944	10.302000	-4.960000
	382.849898	1365.803520	10.288000	-4.870000
	382.949903	1365.793985	10.316000	-4.980000
	383.049909	1365.791601	10.308000	-4.920000
	383.149915	1365.790409	10.270000	-4.910000
	383.249921	1365.792793	10.310000	-4.880000
	383.349926	1365.779683	10.302000	-5.010000
	383.449932	1365.786835	10.322000	-4.840000
	383.551938	1365.765382	10.298000	-5.080000
	383.649944	1365.764191	10.294000	-4.910000
	383.749949	1365.774918	10.312000	-4.810000
	383.849955	1365.774918	10.312000	-4.810000
	383.949961	1365.757041	10.292000	-5.050000
	384.049966	1365.758233	10.284000	-4.890000
	384.149972	1365.763000	10.304000	-4.860000
	384.249978	1365.743932	10.298000	-5.060000
	384.349984	1365.773731	10.308000	-4.650000
	384.449989	1365.776115	10.324000	-4.880000
	384.549995	1365.776115	10.284000	-4.900000
	384.650001	1365.771348	10.322000	-4.940000
	384.750007	1365.749896	10.312000	-5.080000
	384.850012	1365.767775	10.314000	-4.750000
	384.950018	1365.754665	10.300000	-5.010000
	385.050024	1365.765392	10.298000	-4.810000
	385.150030	1365.785655	10.332000	-4.730000
	385.250035	1365.778504	10.294000	-4.960000
	385.350041	1365.778504	10.294000	-4.960000
	385.452047	1365.788039	10.304000	-4.820000
	385.550052	1365.807110	10.338000	-4.740000
	385.650058	1365.795192	10.290000	-5.000000
	385.750064	1365.799960	10.296000	-4.860000
	385.850070	1365.779699	10.336000	-5.070000
	385.950075	1365.791618	10.298000	-4.800000
	386.050081	1365.788043	10.328000	-4.930000
	386.150086	1365.778508	10.298000	-4.980000
	386.250093	1365.798771	10.300000	-4.730000
	386.352098	1365.795196	10.306000	-4.930000
	386.452104	1365.782086	10.276000	-5.010000
	386.550109	1365.771359	10.332000	-4.990000
	386.650115	1365.764208	10.302000	-4.960000
	386.750121	1365.764208	10.302000	-4.960000
	386.850127	1365.777319	10.290000	-4.790000
	386.950132	1365.774936	10.324000	-4.920000
	387.050138	1365.774936	10.288000	-4.900000
	387.150144	1365.809504	10.310000	-4.610000
	387.250150	1365.810696	10.300000	-4.890000
	387.351155	1365.813080	10.306000	-4.880000
	387.450161	1365.819040	10.314000	-4.850000
	387.550167	1365.811888	10.294000	-4.960000
	387.650172	1365.799970	10.308000	-5.000000
	387.750178	1365.782093	10.298000	-5.050000
	387.850184	1365.785668	10.300000	-4.870000
	387.950190	1365.786860	10.318000	-4.890000
	388.050195	1365.784477	10.288000	-4.920000
	388.150201	1365.790436	10.310000	-4.850000
	388.250207	1365.776134	10.298000	-5.020000
	388.352212	1365.794013	10.304000	-4.750000
	388.450218	1365.794013	10.304000	-4.750000
	388.550224	1365.790438	10.306000	-4.930000
	388.650229	1365.791630	10.296000	-4.890000
	388.750236	1365.802357	10.316000	-4.810000
	388.850241	1365.808317	10.278000	-4.850000
	388.951247	1365.815468	10.282000	-4.840000
	389.050252	1365.814276	10.308000	-4.910000
	389.150258	1365.802358	10.294000	-5.000000
	389.250264	1365.810701	10.332000	-4.830000
	389.353270	1365.797591	10.308000	-5.010000
	389.450275	1365.808318	10.314000	-4.810000
	389.550281	1365.802359	10.324000	-4.950000
	389.650287	1365.802359	10.282000	-4.900000
	389.749292	1365.804743	10.322000	-4.880000
	389.849298	1365.804743	10.322000	-4.880000
	389.949304	1365.796400	10.294000	-4.970000
	390.049310	1365.804743	10.314000	-4.830000
	390.149315	1365.798784	10.302000	-4.950000
	390.251321	1365.807127	10.306000	-4.830000
	390.349327	1365.808319	10.330000	-4.890000
	390.449333	1365.802360	10.306000	-4.950000
	390.549338	1365.794017	10.312000	-4.970000
	390.649344	1365.785674	10.272000	-4.970000
	390.749350	1365.794018	10.316000	-4.830000
	390.849355	1365.776140	10.282000	-5.050000
	390.949361	1365.779716	10.278000	-4.870000
	391.049367	1365.773757	10.306000	-4.950000
	391.149373	1365.767798	10.312000	-4.950000
