LabVIEW Measurement	
Writer_Version	2
Reader_Version	2
Separator	Tab
Decimal_Separator	.
Multi_Headings	No
X_Columns	No
Time_Pref	Relative
Operator	Herve
Date	2023/06/20
Time	17:15:01.9447865486145019532
***End_of_Header***	
	
Channels	4				
Samples	3062	3062	3062	3062	
Date	1904/01/01	1904/01/01	1904/01/01	1904/01/01	
Time	09:00:00	09:00:00	09:00:00	09:00:00	
Y_Unit_Label	s	Hz	mV	°	
X_Dimension	Time	Time	Time	Time	
X0	0.0000000000000000E+0	0.0000000000000000E+0	0.0000000000000000E+0	0.0000000000000000E+0	
Delta_X	1.000000	1.000000	1.000000	1.000000	
***End_of_Header***					
X_Value	Time	Res.Frequency	Amplitude	Phase	Comment
	0.050003	1448.228339	27.260000	-5.860000
	0.150009	1448.233394	27.196000	-5.860000
	0.250014	1448.234658	27.194000	-5.890000
	0.353020	1448.220756	27.214000	-6.010000
	0.450026	1448.220756	27.214000	-6.010000
	0.550032	1448.220756	27.244000	-5.900000
	0.650037	1448.228339	27.208000	-5.840000
	0.750043	1448.229603	27.170000	-5.890000
	0.850049	1448.220757	27.218000	-5.970000
	0.950055	1448.224548	27.250000	-5.870000
	1.050060	1448.234659	27.230000	-5.820000
	1.150066	1448.228340	27.182000	-5.950000
	1.250072	1448.218230	27.224000	-5.980000
	1.350077	1448.219494	27.242000	-5.890000
	1.450083	1448.229605	27.208000	-5.820000
	1.550089	1448.232132	27.198000	-5.880000
	1.650095	1448.224550	27.194000	-5.960000
	1.750100	1448.224550	27.194000	-5.960000
	1.850106	1448.222022	27.230000	-5.920000
	1.953112	1448.225813	27.212000	-5.870000
	2.050117	1448.229605	27.206000	-5.870000
	2.151123	1448.225813	27.210000	-5.930000
	2.250129	1448.222022	27.228000	-5.930000
	2.353135	1448.225814	27.228000	-5.870000
	2.450140	1448.228341	27.212000	-5.880000
	2.554146	1448.220759	27.206000	-5.960000
	2.650152	1448.215703	27.244000	-5.940000
	2.751158	1448.218231	27.234000	-5.880000
	2.850163	1448.225814	27.192000	-5.840000
	2.950169	1448.225814	27.194000	-5.900000
	3.050175	1448.225814	27.194000	-5.900000
	3.151180	1448.224550	27.200000	-5.910000
	3.250186	1448.230869	27.252000	-5.850000
	3.353192	1448.234661	27.222000	-5.870000
	3.450198	1448.232133	27.204000	-5.920000
	3.550203	1448.224551	27.206000	-5.960000
	3.650209	1448.223287	27.226000	-5.910000
	3.750215	1448.232134	27.216000	-5.830000
	3.850220	1448.235925	27.180000	-5.870000
	3.950226	1448.225815	27.212000	-5.980000
	4.050232	1448.214441	27.236000	-5.990000
	4.153238	1448.216969	27.230000	-5.880000
	4.250243	1448.216969	27.230000	-5.880000
	4.352249	1448.223288	27.202000	-5.850000
	4.450255	1448.224552	27.174000	-5.890000
	4.550261	1448.218233	27.218000	-5.950000
	4.650266	1448.222024	27.250000	-5.870000
	4.750272	1448.227080	27.220000	-5.860000
	4.850277	1448.228343	27.192000	-5.890000
	4.953283	1448.216970	27.176000	-5.990000
	5.050289	1448.219497	27.246000	-5.880000
	5.150295	1448.225816	27.224000	-5.850000
	5.250300	1448.237191	27.206000	-5.810000
	5.350306	1448.237191	27.206000	-5.810000
	5.450312	1448.239719	27.184000	-5.880000
	5.553318	1448.233400	27.250000	-5.950000
	5.650323	1448.238455	27.234000	-5.860000
	5.750329	1448.246038	27.224000	-5.840000
	5.850335	1448.240983	27.186000	-5.940000
	5.954341	1448.234664	27.222000	-5.950000
	6.050346	1448.233400	27.228000	-5.910000
	6.150352	1448.240983	27.220000	-5.840000
	6.250358	1448.238456	27.178000	-5.920000
	6.350363	1448.234664	27.180000	-5.930000
	6.450369	1448.234664	27.180000	-5.930000
	6.552375	1448.228345	27.224000	-5.950000
	6.650381	1448.230873	27.264000	-5.880000
	6.750386	1448.237192	27.208000	-5.850000
	6.852392	1448.232137	27.190000	-5.940000
	6.952398	1448.223291	27.228000	-5.970000
	7.050404	1448.223291	27.246000	-5.900000
	7.150409	1448.232138	27.190000	-5.830000
	7.250415	1448.229610	27.212000	-5.920000
	7.350420	1448.222027	27.240000	-5.960000
	7.450427	1448.230874	27.246000	-5.830000
	7.550432	1448.233402	27.198000	-5.880000
	7.650438	1448.228347	27.206000	-5.940000
	7.750443	1448.224555	27.234000	-5.930000
	7.850449	1448.224555	27.234000	-5.930000
	7.950455	1448.230874	27.234000	-5.850000
	8.050461	1448.237194	27.198000	-5.850000
	8.150466	1448.230875	27.208000	-5.950000
	8.250472	1448.228347	27.238000	-5.920000
	8.352478	1448.230875	27.214000	-5.880000
	8.450484	1448.230875	27.194000	-5.900000
	8.550489	1448.232139	27.236000	-5.890000
	8.650495	1448.235930	27.232000	-5.870000
	8.751501	1448.243513	27.212000	-5.840000
	8.851506	1448.234667	27.178000	-5.970000
	8.955513	1448.234667	27.178000	-5.970000
	9.050518	1448.223293	27.188000	-5.990000
	9.150524	1448.224557	27.226000	-5.890000
	9.250529	1448.234667	27.222000	-5.820000
	9.350535	1448.238459	27.202000	-5.870000
	9.450541	1448.230876	27.220000	-5.960000
	9.554547	1448.227085	27.256000	-5.930000
	9.651552	1448.232140	27.220000	-5.860000
	9.750558	1448.237195	27.186000	-5.860000
	9.850564	1448.230876	27.236000	-5.950000
	9.950569	1448.237196	27.222000	-5.850000
	10.050575	1448.239723	27.194000	-5.880000
	10.154581	1448.239723	27.194000	-5.880000
	10.250587	1448.239723	27.170000	-5.900000
	10.350592	1448.230877	27.214000	-5.970000
	10.450598	1448.235932	27.242000	-5.860000
	10.550604	1448.262475	27.170000	-5.690000
	10.651609	1448.253628	27.212000	-5.970000
	10.750615	1448.242254	27.242000	-5.990000
	10.850621	1448.246046	27.228000	-5.870000
	10.950626	1448.251101	27.218000	-5.860000
	11.050632	1448.240991	27.204000	-5.980000
	11.154638	1448.237199	27.224000	-5.930000
	11.250644	1448.238463	27.200000	-5.890000
	11.354650	1448.246046	27.200000	-5.840000
	11.450655	1448.246046	27.200000	-5.840000
	11.554661	1448.240991	27.198000	-5.940000
	11.652667	1448.234672	27.242000	-5.950000
	11.750672	1448.235936	27.232000	-5.890000
	11.850678	1448.239728	27.186000	-5.870000
	11.950684	1448.233409	27.198000	-5.950000
	12.050690	1448.234672	27.218000	-5.890000
	12.154696	1448.242256	27.206000	-5.840000
	12.250701	1448.237200	27.194000	-5.940000
	12.354707	1448.230881	27.222000	-5.950000
	12.450712	1448.239728	27.250000	-5.830000
	12.557718	1448.240992	27.196000	-5.890000
	12.650724	1448.238465	27.188000	-5.920000
	12.750730	1448.234673	27.226000	-5.930000
	12.850735	1448.234673	27.226000	-5.930000
	12.950741	1448.240992	27.220000	-5.850000
	13.050746	1448.244784	27.182000	-5.870000
	13.149752	1448.234674	27.220000	-5.980000
	13.249758	1448.256160	27.128000	-5.730000
	13.349764	1447.951715	28.126000	-8.310000
	13.449769	1448.004796	27.190000	-5.480000
	13.549775	1447.940364	27.104000	-6.410000
	13.649781	1448.152859	27.350000	-4.220000
	13.749787	1448.389458	28.170000	-4.030000
	13.850792	1448.323745	27.260000	-6.420000
	13.949798	1448.309843	27.172000	-6.010000
	14.049804	1448.116551	28.272000	-7.430000
	14.152810	1448.194926	26.958000	-5.280000
	14.249815	1448.194926	26.958000	-5.280000
	14.353821	1448.212620	27.194000	-5.760000
	14.449827	1448.245483	27.196000	-5.640000
	14.549832	1448.579757	27.760000	-3.260000
	14.649838	1448.621479	26.882000	-5.570000
	14.753844	1448.209504	26.868000	-9.160000
	14.849850	1448.223407	27.248000	-5.790000
	14.949855	1448.271440	27.356000	-5.520000
	15.049861	1448.280287	27.268000	-5.830000
	15.149867	1448.205736	27.326000	-6.490000
	15.249873	1448.212055	27.202000	-5.850000
	15.349878	1448.279054	26.398000	-5.370000
	15.449884	1448.284110	27.156000	-5.860000
	15.551890	1448.284110	27.156000	-5.860000
	15.649895	1448.260098	27.316000	-6.090000
	15.749901	1448.257570	27.246000	-5.920000
	15.851907	1448.249988	27.138000	-5.960000
	15.949913	1448.180491	27.196000	-6.450000
	16.049918	1448.172909	27.258000	-5.960000
	16.153924	1448.198186	27.432000	-5.700000
	16.249929	1448.212089	27.110000	-5.790000
	16.349936	1448.205770	27.080000	-5.950000
	16.449941	1448.241161	27.298000	-5.620000
	16.552947	1448.358755	26.558000	-4.970000
	16.649952	1448.342325	27.146000	-6.030000
	16.749958	1448.299357	27.376000	-6.240000
	16.849964	1448.301885	27.270000	-5.880000
	16.949970	1448.301885	27.270000	-5.880000
	17.049975	1448.353715	27.534000	-5.490000
	17.149981	1448.325911	27.164000	-6.120000
	17.250987	1448.298107	27.242000	-6.120000
	17.355993	1448.293052	27.232000	-5.940000
	17.449998	1448.290524	27.196000	-5.920000
	17.553004	1448.214709	27.244000	-6.500000
	17.650010	1448.157848	27.792000	-6.350000
	17.752016	1448.279230	27.126000	-4.940000
	17.850021	1448.298190	27.446000	-5.750000
	17.950027	1448.303245	27.144000	-5.860000
	18.050033	1448.998362	25.972000	-0.430000
	18.153039	1449.622091	25.164000	-0.990000
	18.250044	1449.622091	25.164000	-0.990000
	18.350050	1450.090290	25.324000	-2.210000
	18.450056	1450.514045	25.304000	-2.560000
	18.553061	1450.801820	25.208000	-3.630000
	18.650067	1451.199036	25.026000	-2.770000
	18.750072	1451.300391	25.234000	-5.100000
	18.850079	1451.364998	25.276000	-5.390000
	18.952084	1451.357399	25.208000	-5.960000
	19.050090	1451.461300	25.438000	-5.080000
	19.150095	1451.533519	25.106000	-5.330000
	19.251101	1451.530986	25.102000	-5.920000
	19.351107	1451.530986	25.102000	-5.920000
	19.450113	1451.470195	25.150000	-6.380000
	19.550118	1451.484129	25.136000	-5.790000
	19.650124	1451.458798	24.944000	-6.100000
	19.750130	1451.419537	24.856000	-6.210000
	19.850136	1451.365082	24.946000	-6.330000
	19.952141	1451.362549	25.014000	-5.920000
	20.050147	1451.297968	24.868000	-6.410000
	20.150153	1451.173892	24.916000	-6.880000
	20.250158	1451.092863	24.826000	-6.540000
	20.354165	1450.992852	24.790000	-6.690000
	20.450170	1450.897910	24.778000	-6.650000
	20.552176	1450.802975	24.762000	-6.650000
	20.650181	1450.802975	24.762000	-6.650000
	20.750187	1450.819434	25.190000	-5.770000
	20.850193	1450.949913	24.474000	-4.870000
	20.957199	1450.739819	24.208000	-7.560000
	21.050204	1450.613260	24.346000	-6.900000
	21.154210	1450.503160	24.296000	-6.770000
	21.250216	1450.401925	24.296000	-6.700000
	21.352221	1450.315878	24.316000	-6.580000
	21.450227	1450.179237	24.506000	-6.980000
	21.550233	1450.074229	24.580000	-6.730000
	21.650239	1450.074229	24.580000	-6.730000
	21.750244	1450.037536	24.284000	-6.190000
	21.850250	1450.017291	24.304000	-6.060000
	21.952256	1450.008434	24.274000	-5.970000
	22.050261	1450.141374	24.216000	-4.850000
	22.150267	1450.093292	24.292000	-6.280000
	22.250273	1450.073047	24.284000	-6.060000
	22.350278	1450.073047	24.230000	-5.900000
	22.450284	1450.054066	24.244000	-6.050000
	22.554290	1450.036352	24.218000	-6.040000
	22.651296	1450.026229	24.210000	-5.980000
	22.750301	1450.076854	24.048000	-5.500000
	22.850307	1450.059139	24.216000	-6.040000
	22.953313	1450.045220	24.198000	-6.010000
	23.050319	1450.045220	24.198000	-6.010000
	23.152325	1450.051547	24.296000	-5.850000
	23.250330	1450.040159	24.216000	-5.990000
	23.350336	1450.017384	24.264000	-6.080000
	23.450342	1450.026241	24.232000	-5.830000
	23.550347	1450.030038	24.218000	-5.870000
	23.650353	1450.051551	24.144000	-5.730000
	23.750359	1450.070533	24.158000	-5.750000
	23.850364	1450.084454	24.200000	-5.790000
	23.955370	1450.093312	24.172000	-5.830000
	24.053376	1450.105967	24.204000	-5.800000
	24.150382	1450.109763	24.188000	-5.870000
	24.250387	1450.109763	24.188000	-5.870000
	24.353393	1450.119888	24.142000	-5.820000
	24.450398	1450.123684	24.142000	-5.870000
	24.552404	1450.123684	24.136000	-5.900000
	24.650410	1450.114826	24.158000	-5.970000
	24.750416	1450.105968	24.132000	-5.970000
	24.850421	1450.098375	24.136000	-5.960000
	24.953427	1450.094579	24.170000	-5.930000
	25.050433	1450.092048	24.182000	-5.920000
	25.154439	1450.098376	24.158000	-5.850000
	25.250444	1450.095845	24.220000	-5.920000
	25.350450	1450.097110	24.196000	-5.890000
	25.450456	1450.097110	24.196000	-5.890000
	25.552462	1450.094579	24.322000	-5.920000
	25.650467	1450.095845	24.194000	-5.890000
	25.750473	1450.127485	24.230000	-5.650000
	25.850479	1450.121157	24.156000	-5.950000
	25.950484	1450.131281	24.136000	-5.820000
	26.050490	1450.162922	24.088000	-5.650000
	26.150496	1450.166719	24.126000	-5.870000
	26.250502	1450.173046	24.142000	-5.850000
	26.350507	1450.160392	24.162000	-6.000000
	26.450513	1450.162923	24.144000	-5.880000
	26.552519	1450.162923	24.144000	-5.880000
	26.650525	1450.159126	24.154000	-5.930000
	26.750530	1450.132553	24.120000	-6.110000
	26.851536	1450.037668	24.232000	-6.650000
	26.950541	1450.057916	24.218000	-5.740000
	27.050548	1450.324016	25.234000	-3.800000
	27.150553	1450.301236	24.130000	-6.080000
	27.250559	1450.283518	24.106000	-6.040000
	27.350564	1450.265800	24.094000	-6.040000
	27.450570	1450.337960	23.488000	-5.330000
	27.550576	1450.281015	24.030000	-6.350000
	27.650582	1450.262032	24.112000	-6.050000
	27.750587	1450.262032	24.112000	-6.050000
	27.851593	1450.324061	24.002000	-5.410000
	27.952599	1450.265852	24.318000	-6.360000
	28.050604	1450.248134	24.094000	-6.040000
	28.151610	1450.227886	24.058000	-6.060000
	28.250616	1450.211435	24.126000	-6.030000
	28.350622	1450.208904	24.096000	-5.920000
	28.450627	1450.203842	24.092000	-5.940000
	28.553633	1450.188656	24.102000	-6.020000
	28.650639	1450.188656	24.102000	-6.020000
	28.750645	1450.170940	24.142000	-6.040000
	28.850650	1450.164612	24.158000	-5.950000
	28.950656	1450.155754	24.108000	-5.970000
	29.050662	1450.157020	24.094000	-5.890000
	29.153667	1450.139304	24.094000	-6.040000
	29.250673	1450.141835	24.098000	-5.880000
	29.350679	1450.146897	24.090000	-5.860000
	29.451685	1450.141835	24.160000	-5.940000
	29.550690	1450.144366	24.110000	-5.880000
	29.650696	1450.158287	24.122000	-5.790000
	29.750702	1450.165880	24.086000	-5.840000
	29.850708	1450.017870	23.938000	-7.070000
	29.950713	1450.040649	24.128000	-5.720000
	30.050719	1450.040649	24.128000	-5.720000
	30.152725	1450.055835	24.132000	-5.780000
	30.250731	1450.072286	24.080000	-5.770000
	30.350736	1450.088738	24.080000	-5.770000
	30.450742	1450.098862	24.082000	-5.820000
	30.550747	1450.107720	24.096000	-5.830000
	30.649753	1450.116578	24.098000	-5.830000
	30.749759	1450.124171	24.068000	-5.840000
	30.849765	1450.130499	24.078000	-5.850000
	30.954771	1450.131764	24.074000	-5.890000
	31.049776	1450.135561	24.098000	-5.870000
	31.152782	1450.135561	24.100000	-5.900000
	31.249787	1450.135561	24.100000	-5.900000
	31.352794	1450.143154	24.128000	-5.840000
	31.449799	1450.150747	24.096000	-5.840000
	31.549805	1450.149482	24.104000	-5.910000
	31.650810	1450.154544	24.118000	-5.860000
	31.749816	1450.155809	24.090000	-5.890000
	31.849822	1450.158340	24.082000	-5.880000
	31.949828	1450.164668	24.070000	-5.850000
	32.049833	1450.160871	24.060000	-5.930000
	32.152839	1450.160871	24.082000	-5.900000
	32.249845	1450.162137	24.082000	-5.890000
	32.352850	1450.162137	24.082000	-5.890000
	32.449856	1450.162137	24.068000	-5.900000
	32.554862	1450.168465	24.096000	-5.850000
	32.650867	1450.169730	24.076000	-5.890000
	32.749873	1450.167199	24.104000	-5.920000
	32.849879	1450.165934	24.072000	-5.910000
	32.952885	1450.169730	24.074000	-5.870000
	33.049891	1450.176058	24.066000	-5.850000
	33.149896	1450.181120	24.072000	-5.860000
	33.250902	1450.189979	24.066000	-5.830000
	33.349908	1450.196307	24.040000	-5.850000
	33.449914	1450.200103	24.050000	-5.870000
	33.549919	1450.198838	24.054000	-5.910000
	33.649925	1450.202634	24.038000	-5.870000
	33.749930	1450.202634	24.030000	-5.900000
	33.849936	1450.202634	24.030000	-5.900000
	33.949942	1450.202634	24.036000	-5.900000
	34.049948	1450.200103	24.050000	-5.920000
	34.149953	1450.203900	24.022000	-5.870000
	34.249959	1450.200104	24.028000	-5.930000
	34.349965	1450.196307	24.028000	-5.930000
	34.449971	1450.182387	24.034000	-6.010000
	34.549976	1450.184918	24.012000	-5.880000
	34.649982	1450.181121	24.036000	-5.930000
	34.750988	1450.174794	24.054000	-5.950000
	34.849993	1450.176059	24.038000	-5.890000
	34.949999	1450.174794	24.042000	-5.910000
	35.050005	1450.170997	24.058000	-5.930000
	35.152011	1450.170997	24.068000	-5.900000
	35.250016	1450.170997	24.068000	-5.900000
	35.350022	1450.170997	24.058000	-5.900000
	35.450028	1450.170997	24.050000	-5.900000
	35.550034	1450.172263	24.056000	-5.890000
	35.650039	1450.170997	24.054000	-5.910000
	35.750045	1450.179856	24.050000	-5.830000
	35.850050	1450.186184	24.042000	-5.850000
	35.950057	1450.200105	24.034000	-5.790000
	36.050062	1450.206433	24.042000	-5.850000
	36.154068	1450.216558	24.018000	-5.820000
	36.251074	1450.225417	24.016000	-5.830000
	36.350079	1450.229214	24.012000	-5.870000
	36.450085	1450.229214	24.010000	-5.900000
	36.553091	1450.233011	24.008000	-5.870000
	36.652097	1450.233011	24.008000	-5.870000
	36.750102	1450.227948	23.970000	-5.940000
	36.850108	1450.221621	23.992000	-5.950000
	36.952114	1450.224152	24.012000	-5.880000
	37.050119	1450.222886	24.014000	-5.910000
	37.150125	1450.219090	24.030000	-5.930000
	37.250131	1450.210231	24.038000	-5.970000
	37.354137	1450.214028	24.038000	-5.870000
	37.450142	1450.211497	24.042000	-5.920000
	37.550148	1450.211497	24.064000	-5.900000
	37.650154	1450.217825	24.054000	-5.850000
	37.750159	1450.230481	24.014000	-5.800000
	37.850165	1450.233012	24.038000	-5.880000
	37.950171	1450.234277	24.060000	-5.890000
	38.050177	1450.241871	24.042000	-5.840000
	38.150182	1450.241871	24.042000	-5.840000
	38.250188	1450.245668	23.992000	-5.870000
	38.350194	1450.249465	24.008000	-5.870000
	38.450200	1450.257058	24.026000	-5.840000
	38.550205	1450.263386	24.000000	-5.850000
	38.650211	1450.265918	24.006000	-5.880000
	38.750216	1450.263386	23.988000	-5.920000
	38.850222	1450.263386	23.978000	-5.900000
	38.951228	1450.253262	23.980000	-5.980000
	39.050234	1450.249465	23.982000	-5.930000
	39.150239	1450.243137	24.000000	-5.950000
	39.250245	1450.239341	23.994000	-5.930000
	39.352251	1450.233013	24.012000	-5.950000
	39.450256	1450.234279	24.004000	-5.890000
	39.550262	1450.230482	24.014000	-5.930000
	39.650268	1450.230482	24.014000	-5.930000
	39.750274	1450.231748	24.020000	-5.890000
	39.850279	1450.236810	24.004000	-5.860000
	39.950285	1450.236810	24.012000	-5.900000
	40.050291	1450.231748	24.048000	-5.940000
	40.150297	1450.238076	24.016000	-5.850000
	40.250302	1450.246935	24.028000	-5.830000
	40.350308	1450.254529	24.010000	-5.840000
	40.450314	1450.258325	24.024000	-5.870000
	40.550320	1450.269716	24.010000	-5.810000
	40.650325	1450.278576	23.992000	-5.830000
	40.750331	1450.277310	23.982000	-5.910000
	40.850337	1450.273513	23.984000	-5.930000
	40.950342	1450.269717	23.972000	-5.930000
	41.050348	1450.268451	23.994000	-5.910000
	41.153354	1450.268451	23.988000	-5.900000
	41.250360	1450.268451	23.988000	-5.900000
	41.350365	1450.264654	23.974000	-5.930000
	41.450371	1450.259592	24.008000	-5.940000
	41.550377	1450.250733	24.020000	-5.970000
	41.650383	1450.245671	24.030000	-5.940000
	41.750388	1450.244405	24.016000	-5.910000
	41.850394	1450.253265	24.004000	-5.830000
	41.953400	1450.259593	24.016000	-5.850000
	42.050406	1450.268452	24.018000	-5.830000
	42.150411	1450.276046	24.018000	-5.840000
	42.250417	1450.286171	24.000000	-5.820000
	42.350422	1450.292499	23.986000	-5.850000
	42.450428	1450.293765	23.972000	-5.890000
	42.550434	1450.293765	23.980000	-5.900000
	42.650440	1450.296296	23.976000	-5.880000
	42.750445	1450.289968	24.012000	-5.950000
	42.850451	1450.289968	24.012000	-5.950000
	42.950457	1450.277312	24.000000	-6.000000
	43.050463	1450.273516	24.012000	-5.930000
	43.150468	1450.270985	24.002000	-5.920000
	43.250474	1450.268453	23.994000	-5.920000
	43.350480	1450.272250	24.008000	-5.870000
	43.450485	1450.279844	24.020000	-5.840000
	43.550491	1450.287438	24.018000	-5.840000
	43.650497	1450.300095	24.002000	-5.800000
	43.751503	1450.289970	24.124000	-5.980000
	43.850508	1450.333008	23.954000	-5.560000
	43.950514	1450.331742	23.954000	-5.910000
	44.050520	1450.321617	23.972000	-5.980000
	44.150526	1450.362124	24.116000	-5.580000
	44.250531	1450.473555	23.942000	-5.020000
	44.350537	1450.473555	23.942000	-5.020000
	44.450542	1450.434321	23.978000	-6.210000
	44.550549	1450.411539	23.994000	-6.080000
	44.650554	1450.392555	23.984000	-6.050000
	44.750560	1450.376102	23.986000	-6.030000
	44.850565	1450.371039	23.992000	-5.940000
	44.950571	1450.374836	24.008000	-5.870000
	45.050577	1450.377367	24.000000	-5.880000
	45.153583	1450.378633	23.954000	-5.890000
	45.250588	1450.383696	23.926000	-5.860000
	45.350594	1450.388759	23.972000	-5.860000
	45.450600	1450.382430	23.954000	-5.950000
	45.550606	1450.374836	23.966000	-5.960000
	45.650611	1450.367243	23.934000	-5.960000
	45.750617	1450.355852	23.952000	-5.990000
	45.850623	1450.344461	23.984000	-5.990000
	45.950628	1450.344461	23.984000	-5.990000
	46.050634	1450.333071	23.952000	-5.990000
	46.150640	1450.311556	24.010000	-6.070000
	46.250646	1450.286245	24.030000	-6.100000
	46.350651	1450.269793	24.050000	-6.030000
	46.450657	1450.252076	24.062000	-6.040000
	46.550663	1450.231828	24.060000	-6.060000
	46.650669	1450.217907	24.080000	-6.010000
	46.750674	1450.200191	24.070000	-6.040000
	46.850680	1450.177413	24.038000	-6.080000
	46.950686	1450.157166	24.036000	-6.060000
	47.050691	1450.123001	24.058000	-6.170000
	47.150697	1450.100224	24.042000	-6.080000
	47.250703	1450.066061	24.060000	-6.170000
	47.350708	1450.066061	24.060000	-6.170000
	47.450714	1450.042020	24.074000	-6.090000
	47.550720	1450.019244	24.080000	-6.080000
	47.650726	1449.990143	24.100000	-6.130000
	47.750731	1449.967369	24.092000	-6.080000
	47.850737	1449.944594	24.078000	-6.080000
	47.950743	1449.926881	24.060000	-6.040000
	48.050748	1449.915494	24.050000	-5.990000
	48.149754	1449.878805	24.000000	-6.190000
	48.249760	1449.890192	24.038000	-5.810000
	48.349766	1449.873745	24.030000	-6.030000
	48.449771	1449.854767	24.032000	-6.050000
	48.549777	1449.848441	24.044000	-5.950000
	48.649783	1449.837055	24.066000	-5.990000
	48.749788	1449.831994	24.058000	-5.940000
	48.849794	1449.831994	24.058000	-5.940000
	48.952800	1449.785188	24.082000	-6.270000
	49.049806	1449.768741	24.608000	-6.030000
	49.149811	1449.832015	23.874000	-5.400000
	49.249817	1449.772560	24.290000	-6.370000
	49.349823	1449.772560	24.040000	-5.900000
	49.449829	1449.773826	24.048000	-5.890000
	49.549834	1449.781417	24.056000	-5.840000
	49.649840	1449.791539	24.044000	-5.820000
	49.753846	1449.801660	24.026000	-5.820000
	49.849852	1449.796600	24.018000	-5.940000
	49.949857	1449.799130	24.000000	-5.880000
	50.049863	1449.790274	24.014000	-5.970000
	50.149868	1449.785213	24.042000	-5.940000
	50.249874	1449.786479	24.044000	-5.890000
	50.349880	1449.792805	24.046000	-5.850000
	50.449886	1449.794070	24.042000	-5.890000
	50.549891	1449.794070	24.042000	-5.890000
	50.649897	1449.802926	24.016000	-5.830000
	50.749903	1449.805457	23.998000	-5.880000
	50.849909	1449.806722	23.978000	-5.890000
	50.949914	1449.796601	24.026000	-5.980000
	51.049920	1449.778889	24.022000	-6.040000
	51.149926	1449.776359	24.022000	-5.920000
	51.249931	1449.783950	24.026000	-5.840000
	51.349937	1449.794072	24.008000	-5.820000
	51.449943	1449.796602	23.990000	-5.880000
	51.549949	1449.801663	23.988000	-5.860000
	51.649954	1449.807989	23.972000	-5.850000
	51.749960	1449.676454	23.956000	-6.940000
	51.849966	1449.686575	24.012000	-5.820000
	51.949972	1449.686575	24.012000	-5.820000
	52.049977	1449.695431	24.028000	-5.830000
	52.149983	1449.705552	24.028000	-5.820000
	52.249989	1449.719469	24.008000	-5.790000
	52.349995	1449.737182	24.004000	-5.760000
	52.450000	1449.754895	23.988000	-5.760000
	52.553006	1449.765016	23.992000	-5.820000
	52.650012	1449.768812	23.982000	-5.870000
	52.750017	1449.766281	23.914000	-5.920000
	52.850023	1449.771342	24.062000	-5.860000
	52.954029	1449.770077	24.014000	-5.910000
	53.050035	1449.771342	24.094000	-5.890000
	53.154040	1449.780199	24.000000	-5.830000
	53.250046	1449.789055	23.994000	-5.830000
	53.350052	1449.791585	23.982000	-5.880000
	53.450058	1449.792851	23.990000	-5.890000
	53.550063	1449.792851	23.990000	-5.890000
	53.650069	1449.792851	23.994000	-5.900000
	53.750074	1449.791585	24.216000	-5.910000
	53.850080	1449.778934	24.018000	-6.000000
	53.950086	1449.768813	23.982000	-5.980000
	54.050092	1449.757427	23.950000	-5.990000
	54.150097	1449.770079	23.982000	-5.800000
	54.250103	1449.739718	23.984000	-6.140000
	54.350109	1449.660033	24.028000	-6.530000
	54.450115	1449.710646	22.744000	-5.500000
	54.550120	1449.710646	24.034000	-5.900000
	54.650126	1449.715706	24.008000	-5.860000
	54.750132	1449.718237	24.002000	-5.880000
	54.850137	1449.730888	24.020000	-5.800000
	54.952143	1449.741010	24.042000	-5.820000
	55.050149	1449.741010	24.042000	-5.820000
	55.150155	1449.757457	24.016000	-5.770000
	55.250160	1449.773905	23.994000	-5.770000
	55.350166	1449.785292	23.992000	-5.810000
	55.450172	1449.787823	23.990000	-5.880000
	55.551178	1449.791618	23.968000	-5.870000
	55.650183	1449.780232	23.972000	-5.990000
	55.750189	1449.770111	23.978000	-5.980000
	55.850194	1449.768846	24.004000	-5.910000
	55.954201	1449.766316	24.018000	-5.920000
	56.050206	1449.763785	24.020000	-5.920000
	56.150212	1449.772642	23.972000	-5.830000
	56.252218	1449.771377	23.948000	-5.910000
	56.350223	1449.767581	23.928000	-5.930000
	56.450229	1449.757460	23.970000	-5.980000
	56.550235	1449.748604	23.950000	-5.970000
	56.650240	1449.748604	23.950000	-5.970000
	56.750246	1449.737218	23.950000	-5.990000
	56.850252	1449.775178	24.256000	-5.600000
	56.950258	1449.770117	23.998000	-5.940000
	57.050263	1449.762526	23.996000	-5.960000
	57.150269	1449.749875	23.990000	-6.000000
	57.250275	1449.797960	23.996000	-5.520000
	57.350280	1449.792899	23.944000	-5.940000
	57.450286	1449.789103	23.932000	-5.930000
	57.550292	1449.776452	23.942000	-6.000000
	57.650298	1449.758741	23.926000	-6.040000
	57.750303	1449.743560	23.954000	-6.020000
	57.850309	1449.734704	23.968000	-5.970000
	57.950315	1449.754948	23.920000	-5.740000
	58.050321	1449.754948	23.920000	-5.740000
	58.150326	1449.753683	23.942000	-5.910000
	58.250332	1449.767600	23.950000	-5.790000
	58.350338	1449.767600	23.936000	-5.900000
	58.450343	1449.758744	23.906000	-5.970000
	58.550349	1449.746093	23.920000	-6.000000
	58.650355	1449.727117	23.918000	-6.050000
	58.750360	1449.795452	24.066000	-5.360000
	58.850366	1449.779005	23.970000	-6.030000
	58.950372	1449.763824	23.962000	-6.020000
	59.050378	1449.757499	23.976000	-5.950000
	59.150383	1449.762559	23.924000	-5.860000
	59.250389	1449.763824	23.928000	-5.890000
	59.350395	1449.757499	23.892000	-5.950000
	59.450400	1449.746113	23.934000	-5.990000
	59.550406	1449.746113	23.934000	-5.990000
	59.650412	1449.737257	23.926000	-5.970000
	59.750418	1449.727136	23.964000	-5.980000
	59.850423	1449.717016	24.074000	-5.980000
	59.950429	1449.701835	23.890000	-6.020000
	60.050435	1449.656298	24.190000	-6.260000
	60.150441	1449.689194	23.862000	-5.640000
	60.250446	1449.684133	23.870000	-5.940000
	60.350452	1449.677808	23.894000	-5.950000
	60.450458	1449.685399	23.930000	-5.840000
	60.550464	1449.689194	23.948000	-5.870000
	60.650469	1449.694254	23.986000	-5.860000
	60.750475	1449.701845	23.962000	-5.840000
	60.850481	1449.713232	23.958000	-5.810000
	60.950486	1449.713232	23.958000	-5.810000
	61.050492	1449.719557	23.928000	-5.850000
	61.150498	1449.734740	23.924000	-5.780000
	61.250504	1449.743596	23.906000	-5.830000
	61.350509	1449.737270	23.900000	-5.950000
	61.450515	1449.730945	23.914000	-5.950000
	61.552521	1449.725884	23.916000	-5.940000
	61.650527	1451.992859	3.104000	11.340000
	61.750532	1465.251119	0.634000	54.300000
	61.851538	1505.405054	0.422000	72.360000
	61.950543	1536.736398	0.376000	69.230000
	62.050549	1623.138961	0.282000	77.560000
	62.150555	1660.381929	0.488000	70.430000
	62.250561	1689.542411	0.410000	66.880000
	62.350566	1731.892047	0.404000	71.430000
	62.450572	1731.892047	0.404000	71.430000
	62.553578	1756.307378	0.382000	63.300000
	62.650584	1778.197723	0.620000	61.010000
	62.750589	1802.456296	0.640000	62.710000
	62.850595	1520.967411	0.342000	84.670000
	62.950601	NaN	0.252000	82.960000
	63.050606	NaN	0.270000	88.520000
	63.150612	NaN	0.266000	82.510000
	63.250618	NaN	0.302000	77.550000
	63.350624	NaN	0.300000	71.020000
	63.450629	NaN	0.292000	78.770000
	63.550635	NaN	0.344000	68.960000
	63.650641	NaN	0.296000	74.980000
	63.750647	NaN	0.354000	70.450000
	63.850652	NaN	0.354000	70.450000
	63.954658	NaN	0.306000	73.270000
	64.053664	NaN	0.322000	72.570000
	64.150670	NaN	0.328000	73.220000
	64.250675	NaN	0.400000	69.710000
	64.350681	NaN	0.340000	70.770000
	64.450686	NaN	1.594000	-20.410000
	64.550692	NaN	0.288000	78.300000
	64.650698	NaN	0.270000	84.750000
	64.751704	NaN	0.264000	81.170000
	64.851709	NaN	0.274000	85.600000
	64.950715	NaN	0.274000	86.050000
	65.050721	NaN	0.282000	84.530000
	65.150727	NaN	0.260000	85.820000
	65.250732	NaN	0.282000	86.580000
	65.350738	NaN	0.268000	83.610000
	65.450744	NaN	0.268000	83.610000
	65.550749	NaN	0.272000	84.980000
	65.649755	NaN	0.274000	85.840000
	65.749761	NaN	0.260000	84.070000
	65.849767	NaN	0.280000	84.880000
	65.949772	NaN	0.280000	90.210000
	66.049778	NaN	0.268000	84.480000
	66.152784	NaN	0.244000	87.430000
	66.249789	NaN	0.276000	85.870000
	66.349795	NaN	0.264000	83.520000
	66.450801	NaN	0.266000	80.960000
	66.549807	NaN	0.260000	83.010000
	66.649812	NaN	0.272000	86.620000
	66.749818	NaN	0.264000	79.870000
	66.849824	NaN	0.268000	84.710000
	66.952830	NaN	0.268000	84.710000
	67.049835	NaN	0.270000	86.620000
	67.149841	NaN	0.280000	83.080000
	67.249846	NaN	0.258000	82.320000
	67.353853	NaN	0.256000	84.440000
	67.449858	NaN	0.248000	86.080000
	67.549864	NaN	0.254000	83.100000
	67.649869	NaN	0.278000	82.980000
	67.749875	NaN	NaN	82.900000
	67.849881	NaN	NaN	82.900000
	67.949887	NaN	NaN	NaN
	68.049892	NaN	NaN	NaN
	68.149898	NaN	NaN	NaN
	68.249904	NaN	NaN	NaN
	68.349910	NaN	NaN	NaN
	68.449915	NaN	NaN	NaN
	68.552921	NaN	NaN	NaN
	68.649927	NaN	NaN	NaN
	68.749932	NaN	NaN	NaN
	68.849938	NaN	NaN	NaN
	68.950944	NaN	NaN	NaN
	69.049950	NaN	NaN	NaN
	69.152956	NaN	NaN	NaN
	69.249961	NaN	NaN	NaN
	69.352967	NaN	NaN	NaN
	69.449973	NaN	NaN	NaN
	69.549978	NaN	NaN	NaN
	69.649984	NaN	NaN	NaN
	69.756990	NaN	NaN	NaN
	69.851995	NaN	NaN	NaN
	69.950001	NaN	NaN	NaN
	70.050007	NaN	NaN	NaN
	70.150012	NaN	NaN	NaN
	70.250018	NaN	NaN	NaN
	70.350024	NaN	NaN	NaN
	70.450030	NaN	NaN	NaN
	70.550035	NaN	NaN	NaN
	70.650041	NaN	NaN	NaN
	70.750047	NaN	NaN	NaN
	70.850052	NaN	NaN	NaN
	70.950058	NaN	NaN	NaN
	71.050064	NaN	NaN	NaN
	71.150070	NaN	NaN	NaN
	71.250075	NaN	NaN	NaN
	71.350081	NaN	NaN	NaN
	71.450087	NaN	NaN	NaN
	71.550093	NaN	NaN	NaN
	71.650098	NaN	NaN	NaN
	71.750104	NaN	NaN	NaN
	71.850110	NaN	NaN	NaN
	71.950116	NaN	NaN	NaN
	72.050121	NaN	NaN	NaN
	72.150127	NaN	NaN	NaN
	72.250133	NaN	NaN	NaN
	72.350138	NaN	NaN	NaN
	72.450144	NaN	NaN	NaN
	72.550150	NaN	NaN	NaN
	72.650156	NaN	NaN	NaN
	72.750161	NaN	NaN	NaN
	72.850167	NaN	NaN	NaN
	72.950173	NaN	NaN	NaN
	73.050179	NaN	NaN	NaN
	73.150184	NaN	NaN	NaN
	73.250190	NaN	NaN	NaN
	73.350195	NaN	NaN	NaN
	73.450201	1383.260613	0.266000	88.920000
	73.550207	1301.115517	0.232000	87.540000
	73.650213	1164.656659	0.216000	85.500000
	73.750218	1100.238678	0.190000	87.890000
	73.850224	961.076337	0.158000	85.060000
	73.950230	923.463315	0.148000	90.000000
	74.050236	893.385369	0.158000	91.450000
	74.150241	863.737131	0.132000	91.290000
	74.250247	863.737131	0.132000	91.290000
	74.350253	822.985835	0.140000	88.770000
	74.450258	804.566941	0.110000	95.340000
	74.550264	876.455751	0.106000	79.410000
	74.650270	821.635370	0.126000	87.300000
	74.750276	797.458212	0.124000	92.370000
	74.850281	740.482984	0.124000	86.740000
	74.950287	860.344484	0.106000	80.800000
	75.050293	NaN	0.122000	82.200000
	75.150299	NaN	0.140000	89.180000
	75.250304	NaN	0.144000	87.630000
	75.350310	NaN	0.140000	85.890000
	75.450315	NaN	0.130000	82.060000
	75.550322	NaN	0.130000	82.060000
	75.650327	NaN	0.126000	85.050000
	75.750333	NaN	0.116000	90.000000
	75.850338	NaN	0.122000	93.780000
	75.950344	NaN	0.128000	88.240000
	76.050350	NaN	0.144000	82.090000
	76.150356	NaN	0.130000	85.570000
	76.250361	NaN	0.146000	89.220000
	76.373368	NaN	0.130000	83.850000
	76.450373	NaN	0.144000	80.930000
	76.550379	NaN	0.132000	81.450000
	76.650384	NaN	0.152000	81.400000
	76.750390	NaN	0.118000	83.710000
	76.850396	NaN	0.146000	98.830000
	76.950401	NaN	0.146000	98.830000
	77.050407	NaN	0.134000	83.990000
	77.150413	NaN	0.134000	81.570000
	77.250419	NaN	0.140000	93.340000
	77.350424	NaN	0.128000	91.330000
	77.450430	NaN	0.140000	85.540000
	77.550436	NaN	0.144000	83.750000
	77.650442	NaN	0.118000	83.770000
	77.758448	NaN	0.120000	85.710000
	77.850453	NaN	0.136000	88.320000
	77.950459	NaN	0.126000	85.460000
	78.050465	NaN	0.106000	93.150000
	78.150470	NaN	0.142000	90.400000
	78.250476	NaN	0.142000	90.400000
	78.350482	NaN	0.136000	88.300000
	78.450487	NaN	0.116000	87.040000
	78.550493	NaN	0.142000	86.400000
	78.650499	NaN	0.120000	85.320000
	78.750504	NaN	0.128000	80.830000
	78.850510	NaN	0.138000	90.410000
	78.950516	NaN	0.124000	82.710000
	79.050522	NaN	0.174000	77.690000
	79.150527	NaN	0.198000	88.590000
	79.250533	NaN	0.198000	88.590000
	79.350539	NaN	0.164000	73.670000
	79.450544	NaN	0.172000	77.400000
	79.550550	NaN	0.134000	79.360000
	79.650556	NaN	0.168000	71.460000
	79.750562	NaN	0.166000	81.490000
	79.850567	NaN	0.202000	71.480000
	79.950573	NaN	0.176000	76.200000
	80.065580	NaN	0.164000	76.640000
	80.150585	NaN	0.152000	84.370000
	80.250590	NaN	0.180000	70.330000
	80.350596	NaN	0.194000	84.460000
	80.450602	NaN	0.154000	75.520000
	80.550608	NaN	0.536000	72.470000
	80.650613	NaN	0.536000	72.470000
	80.750619	NaN	1.350000	83.490000
	80.850625	NaN	1.396000	83.260000
	80.950630	NaN	1.400000	84.310000
	81.050636	NaN	1.408000	83.170000
	81.150642	NaN	1.408000	84.510000
	81.250648	NaN	1.400000	83.440000
	81.350653	NaN	1.420000	82.970000
	81.450659	NaN	1.424000	84.120000
	81.550665	NaN	1.406000	83.510000
	81.650671	NaN	1.412000	83.690000
	81.750676	NaN	1.408000	83.160000
	81.850682	NaN	1.408000	83.160000
	81.950687	NaN	1.408000	84.460000
	82.050693	NaN	1.422000	83.390000
	82.150699	NaN	1.412000	83.220000
	82.250705	NaN	1.416000	83.190000
	82.350710	NaN	1.408000	83.850000
	82.450716	NaN	1.418000	82.990000
	82.550722	NaN	1.382000	83.910000
	82.653728	NaN	1.394000	83.460000
	82.750733	NaN	1.406000	83.880000
	82.850739	NaN	1.430000	84.150000
	82.950745	NaN	1.412000	83.540000
	83.050750	NaN	1.412000	83.540000
	83.149756	NaN	1.426000	83.570000
	83.249762	NaN	1.410000	82.840000
	83.349768	NaN	1.404000	83.420000
	83.449773	NaN	1.412000	83.540000
	83.549779	NaN	1.406000	83.640000
	83.649785	NaN	1.414000	83.060000
	83.749790	NaN	1.418000	83.330000
	83.849796	NaN	1.404000	84.280000
	83.949802	NaN	1.422000	83.750000
	84.049808	NaN	1.408000	83.810000
	84.149813	NaN	1.408000	83.810000
	84.249819	NaN	NaN	83.910000
	84.349825	NaN	NaN	83.910000
	84.449831	NaN	NaN	NaN
	84.549836	NaN	NaN	NaN
	84.649842	NaN	NaN	NaN
	84.749847	NaN	NaN	NaN
	84.881855	NaN	NaN	NaN
	84.975861	NaN	NaN	NaN
	85.099868	NaN	NaN	NaN
	85.199873	NaN	NaN	NaN
	85.299879	NaN	NaN	NaN
	85.399885	NaN	NaN	NaN
	85.499890	NaN	NaN	NaN
	85.599896	NaN	NaN	NaN
	85.699902	NaN	NaN	NaN
	85.799908	NaN	NaN	NaN
	85.899913	NaN	NaN	NaN
	85.999919	NaN	NaN	NaN
	86.099925	NaN	NaN	NaN
	86.199931	NaN	NaN	NaN
	86.299936	NaN	NaN	NaN
	86.400942	NaN	NaN	NaN
	86.499948	NaN	NaN	NaN
	86.599954	NaN	NaN	NaN
	86.699959	NaN	NaN	NaN
	86.799965	NaN	NaN	NaN
	86.899971	NaN	NaN	NaN
	86.999976	NaN	NaN	NaN
	87.099982	NaN	NaN	NaN
	87.199988	NaN	NaN	NaN
	87.299994	NaN	NaN	NaN
	87.399999	NaN	NaN	NaN
	87.500005	NaN	NaN	NaN
	87.600011	NaN	NaN	NaN
	87.700016	NaN	NaN	NaN
	87.800022	NaN	NaN	NaN
	87.900028	NaN	NaN	NaN
	88.000033	NaN	NaN	NaN
	88.100039	NaN	NaN	NaN
	88.200045	NaN	NaN	NaN
	88.300051	1449.964574	23.904000	-6.180000
	88.400056	1449.925353	23.910000	-6.210000
	88.500062	1449.894989	23.910000	-6.140000
	88.600068	1449.869686	23.904000	-6.100000
	88.700074	1449.843118	23.916000	-6.110000
	88.800079	1449.824141	23.964000	-6.050000
	88.900085	1449.822876	23.952000	-5.910000
	89.000091	1449.817815	23.938000	-5.940000
	89.100097	1449.808959	23.900000	-5.970000
	89.200102	1449.805163	23.884000	-5.930000
	89.300108	1449.795042	23.890000	-5.980000
	89.400114	1449.782391	23.896000	-6.000000
	89.500119	1449.782391	23.896000	-6.000000
	89.600125	1449.768474	23.908000	-6.010000
	89.700131	1449.768474	23.918000	-5.900000
	89.800137	1449.771005	23.946000	-5.880000
	89.900142	1449.779861	23.912000	-5.830000
	90.000148	1449.787452	23.924000	-5.840000
	90.100153	1449.792513	23.886000	-5.860000
	90.200160	1449.797574	23.912000	-5.860000
	90.300165	1449.793779	23.892000	-5.930000
	90.400171	1449.788718	23.898000	-5.940000
	90.500176	1449.788718	23.898000	-5.940000
	90.600182	1449.783657	23.908000	-5.940000
	90.700188	1449.782392	23.932000	-5.910000
	90.800194	1449.779862	23.940000	-5.920000
	90.900199	1449.787453	23.932000	-5.840000
	91.000205	1449.795044	23.918000	-5.840000
	91.100211	1449.798840	23.920000	-5.870000
	91.200217	1449.797575	23.912000	-5.910000
	91.300222	1449.791249	23.894000	-5.950000
	91.400228	1449.784923	23.910000	-5.950000
	91.500234	1449.786188	23.920000	-5.890000
	91.600239	1449.786188	23.930000	-5.900000
	91.700245	1449.786188	23.930000	-5.900000
	91.800251	1449.787453	23.946000	-5.890000
	91.900257	1449.788719	23.924000	-5.890000
	92.000262	1449.797575	23.898000	-5.830000
	92.100268	1449.797575	23.874000	-5.900000
	92.200274	1449.795045	23.866000	-5.920000
	92.300280	1449.786189	23.890000	-5.970000
	92.400285	1449.784924	23.910000	-5.910000
	92.500291	1449.782393	23.964000	-5.920000
	92.600296	1449.783658	23.938000	-5.890000
	92.700303	1449.796311	23.922000	-5.800000
	92.800308	1449.795046	23.908000	-5.910000
	92.900314	1449.800106	23.910000	-5.860000
	93.000319	1449.800106	23.910000	-5.860000
	93.100325	1449.796311	23.896000	-5.930000
	93.200331	1449.784925	23.912000	-5.990000
	93.300337	1449.782394	23.944000	-5.920000
	93.400342	1449.783660	23.970000	-5.890000
	93.500348	1449.786190	23.922000	-5.880000
	93.600354	1449.788720	23.888000	-5.880000
	93.700359	1449.795046	23.886000	-5.850000
	93.800365	1449.793781	23.908000	-5.910000
	93.900371	1449.786190	23.900000	-5.960000
	94.000377	1449.781130	23.944000	-5.940000
	94.100382	1449.782395	23.932000	-5.890000
	94.200388	1449.787456	23.910000	-5.860000
	94.300394	1449.796312	23.918000	-5.830000
	94.400400	1449.812760	23.914000	-5.770000
	94.500405	1449.812760	23.914000	-5.770000
	94.600411	1449.814026	23.878000	-5.890000
	94.700417	1449.812760	23.886000	-5.910000
	94.800423	1449.802639	23.888000	-5.980000
	94.900428	1449.793783	23.914000	-5.970000
	95.000434	1449.788722	23.924000	-5.940000
	95.100440	1449.792518	23.930000	-5.870000
	95.200445	1449.803905	23.916000	-5.810000
	95.300451	1449.810231	23.878000	-5.850000
	95.400457	1449.814027	23.874000	-5.870000
	95.500463	1449.812762	23.868000	-5.910000
	95.600468	1449.800110	23.904000	-6.000000
	95.700474	1449.793784	23.906000	-5.950000
	95.800480	1449.789989	23.916000	-5.930000
	95.900486	1449.797580	23.920000	-5.840000
	96.000491	1449.797580	23.920000	-5.840000
	96.100497	1449.805172	23.916000	-5.840000
	96.200502	1449.811498	23.892000	-5.850000
	96.300508	1449.815293	23.884000	-5.870000
	96.400514	1449.810233	23.886000	-5.940000
	96.500520	1449.801376	23.900000	-5.970000
	96.650528	1449.796316	23.908000	-5.940000
	96.750534	1449.802642	23.942000	-5.850000
	96.850540	1449.817825	23.908000	-5.780000
	96.950545	1449.819090	23.910000	-5.890000
	97.050551	1449.820355	23.890000	-5.890000
	97.150557	1449.815295	23.872000	-5.940000
	97.250563	1449.811499	23.886000	-5.930000
	97.350568	1449.803908	23.894000	-5.960000
	97.450574	1449.800113	23.918000	-5.930000
	97.550580	1449.797582	23.946000	-5.920000
	97.650586	1449.797582	23.946000	-5.920000
	97.750591	1449.801378	23.926000	-5.870000
	97.850597	1449.808969	23.884000	-5.840000
	97.950603	1449.801378	23.884000	-5.960000
	98.050608	1449.796318	23.898000	-5.940000
	98.150614	1449.787461	23.912000	-5.970000
	98.250620	1449.789992	23.922000	-5.880000
	98.350626	1449.792522	23.910000	-5.880000
	98.450631	1449.805175	23.920000	-5.800000
	98.550637	1449.814031	23.886000	-5.830000
	98.650643	1449.819092	23.884000	-5.860000
	98.750648	1449.820357	23.888000	-5.890000
	98.850654	1449.811501	23.886000	-5.970000
	98.950660	1449.801380	23.912000	-5.980000
	99.050665	1449.800115	23.918000	-5.910000
	99.150671	1449.800115	23.918000	-5.910000
	99.250677	1449.810237	23.920000	-5.820000
	99.350683	1449.817828	23.896000	-5.840000
	99.450688	1449.819093	23.858000	-5.890000
	99.550694	1449.816563	23.886000	-5.920000
	99.650700	1449.810237	23.910000	-5.950000
	99.750706	1449.811502	23.940000	-5.890000
	99.850711	1449.811502	23.936000	-5.900000
	99.950717	1449.812767	23.946000	-5.890000
	100.050723	1449.815298	23.886000	-5.880000
	100.150729	1449.822889	23.874000	-5.840000
	100.250734	1449.821624	23.900000	-5.910000
	100.350740	1449.815298	23.886000	-5.950000
	100.450746	1449.810237	23.916000	-5.940000
	100.550751	1449.810237	23.916000	-5.940000
	100.649757	1449.810237	23.936000	-5.900000
	100.749763	1449.815298	23.906000	-5.860000
	100.849769	1449.821624	23.890000	-5.850000
	100.949774	1449.825420	23.872000	-5.870000
	101.049780	1449.820359	23.894000	-5.940000
	101.149786	1449.811503	23.920000	-5.970000
	101.249791	1449.811503	23.928000	-5.900000
	101.349797	1449.814034	23.944000	-5.880000
	101.449803	1449.821625	23.886000	-5.840000
	101.549809	1449.830482	23.870000	-5.830000
	101.649814	1449.821625	23.884000	-5.970000
	101.749820	1449.807709	23.908000	-6.010000
	101.849826	1449.806444	23.938000	-5.910000
	101.949831	1449.815300	23.918000	-5.830000
	102.049837	1449.821626	23.878000	-5.850000
	102.149843	1449.821626	23.878000	-5.850000
	102.249848	1449.822892	23.860000	-5.890000
	102.349854	1449.819096	23.880000	-5.930000
	102.449860	1449.810240	23.902000	-5.970000
	102.549866	1449.808975	23.904000	-5.910000
	102.649871	1449.808975	23.916000	-5.900000
	102.749877	1449.815301	23.900000	-5.850000
	102.849883	1449.820362	23.866000	-5.860000
	102.949889	1449.824157	23.866000	-5.870000
	103.049894	1449.821627	23.870000	-5.920000
	103.149900	1449.816566	23.904000	-5.940000
	103.249906	1449.806445	23.942000	-5.980000
	103.349912	1449.811506	23.894000	-5.860000
	103.449917	1449.816567	23.902000	-5.860000
	103.549923	1449.822893	23.890000	-5.850000
	103.649929	1449.822893	23.890000	-5.850000
	103.749934	1449.822893	23.880000	-5.900000
	103.849940	1449.819097	23.880000	-5.930000
	103.949946	1449.808976	23.916000	-5.980000
	104.049952	1449.808976	23.926000	-5.900000
	104.149957	1449.810241	23.932000	-5.890000
	104.249963	1449.816567	23.918000	-5.850000
	104.349968	1449.826689	23.896000	-5.820000
	104.449975	1449.824159	23.890000	-5.920000
	104.549980	1449.817833	23.874000	-5.950000
	104.649986	1449.805181	23.916000	-6.000000
	104.749991	1449.802651	23.904000	-5.920000
	104.849997	1449.800121	23.910000	-5.920000
	104.950003	1449.807712	23.910000	-5.840000
	105.050009	1449.814038	23.900000	-5.850000
	105.150014	1449.822895	23.878000	-5.830000
	105.250020	1449.822895	23.878000	-5.830000
	105.350026	1449.817834	23.874000	-5.940000
	105.450032	1449.812773	23.882000	-5.940000
	105.550037	1449.805182	23.912000	-5.960000
	105.650043	1449.798857	23.914000	-5.950000
	105.750049	1449.797591	23.928000	-5.910000
	105.850054	1449.807713	23.916000	-5.820000
	105.950060	1449.814039	23.908000	-5.850000
	106.050066	1449.825427	23.862000	-5.810000
	106.150072	1449.827957	23.872000	-5.880000
	106.250077	1449.824162	23.896000	-5.930000
	106.350083	1449.817836	23.884000	-5.950000
	106.450089	1449.817836	23.900000	-5.900000
	106.550095	1449.815305	23.912000	-5.920000
	106.650100	1449.824162	23.916000	-5.830000
	106.750106	1449.831753	23.906000	-5.840000
	106.850111	1449.831753	23.906000	-5.840000
	106.950118	1449.838080	23.882000	-5.850000
	107.050123	1449.838080	23.888000	-5.900000
	107.150129	1449.836814	23.872000	-5.910000
	107.250134	1449.825428	23.884000	-5.990000
	107.350140	1449.816572	23.898000	-5.970000
	107.450146	1449.815306	23.890000	-5.910000
	107.550152	1449.817837	23.914000	-5.880000
	107.650157	1449.821632	23.906000	-5.870000
	107.750163	1449.826693	23.904000	-5.860000
	107.850169	1449.835550	23.904000	-5.830000
	107.950174	1449.841876	23.868000	-5.850000
	108.050180	1449.840611	23.870000	-5.910000
	108.150186	1449.836816	23.876000	-5.930000
	108.250192	1449.836816	23.876000	-5.930000
	108.350197	1449.833020	23.884000	-5.930000
	108.450203	1449.822899	23.912000	-5.980000
	108.550209	1449.821633	23.920000	-5.910000
	108.650215	1449.833021	23.914000	-5.810000
	108.750220	1449.838082	23.914000	-5.860000
	108.850226	1449.848204	23.886000	-5.820000
	108.950232	1449.852000	23.884000	-5.870000
	109.050238	1449.848204	23.894000	-5.930000
	109.150243	1449.839348	23.890000	-5.970000
	109.250249	1449.833022	23.866000	-5.950000
	109.350255	1449.824165	23.902000	-5.970000
	109.450260	1449.824165	23.916000	-5.900000
	109.550266	1449.825430	23.938000	-5.890000
	109.650272	1449.831757	23.904000	-5.850000
	109.750278	1449.841879	23.910000	-5.820000
	109.850283	1449.841879	23.910000	-5.820000
	109.950289	1449.846940	23.896000	-5.860000
	110.050295	1449.850736	23.880000	-5.870000
	110.150301	1449.853266	23.858000	-5.880000
	110.250306	1449.844410	23.888000	-5.970000
	110.350312	1449.844410	23.870000	-5.900000
	110.450317	1449.838084	23.896000	-5.950000
	110.550323	1449.833023	23.900000	-5.940000
	110.650329	1449.827962	23.896000	-5.940000
	110.750335	1449.831758	23.922000	-5.870000
	110.850340	1449.833023	23.920000	-5.890000
	110.950346	1449.843145	23.892000	-5.820000
	111.050352	1449.850737	23.888000	-5.840000
	111.150358	1449.850737	23.870000	-5.900000
	111.250363	1449.849471	23.862000	-5.910000
	111.350369	1449.839350	23.882000	-5.980000
	111.450375	1449.830494	23.898000	-5.970000
	111.550380	1449.830494	23.898000	-5.970000
	111.650386	1449.822902	23.924000	-5.960000
	111.750392	1449.822902	23.928000	-5.900000
	111.850398	1449.822902	23.902000	-5.900000
	111.950403	1449.826698	23.908000	-5.870000
	112.050409	1449.838086	23.908000	-5.810000
	112.150415	1449.843147	23.888000	-5.860000
	112.250421	1449.850738	23.872000	-5.840000
	112.350426	1449.850738	23.886000	-5.900000
	112.450432	1449.848208	23.876000	-5.920000
	112.550437	1449.836821	23.866000	-5.990000
	112.650444	1449.831760	23.862000	-5.940000
	112.750449	1449.825434	23.914000	-5.950000
	112.850455	1449.825434	23.914000	-5.950000
	112.950460	1449.817843	23.904000	-5.960000
	113.050466	1449.817843	23.908000	-5.900000
	113.150472	1449.822904	23.912000	-5.860000
	113.250478	1449.833026	23.886000	-5.820000
	113.350483	1449.840618	23.888000	-5.840000
	113.450489	1449.836822	23.872000	-5.930000
	113.550495	1449.836822	23.880000	-5.900000
	113.650501	1449.830496	23.876000	-5.950000
	113.750506	1449.824170	23.898000	-5.950000
	113.850512	1449.825435	23.902000	-5.890000
	113.950518	1449.834292	23.916000	-5.830000
	114.050523	1449.841884	23.910000	-5.840000
	114.150529	1449.848210	23.868000	-5.850000
	114.250535	1449.845679	23.890000	-5.920000
	114.350541	1449.845679	23.890000	-5.920000
	114.450546	1449.844414	23.890000	-5.910000
	114.550552	1449.838088	23.864000	-5.950000
	114.650558	1449.834293	23.900000	-5.930000
	114.750564	1449.835558	23.910000	-5.890000
	114.850569	1449.838088	23.924000	-5.880000
	114.950575	1449.849476	23.908000	-5.810000
	115.050581	1449.852006	23.878000	-5.880000
	115.150587	1449.853271	23.880000	-5.890000
	115.250592	1449.853271	23.864000	-5.900000
	115.350598	1449.843150	23.886000	-5.980000
	115.450603	1449.840619	23.916000	-5.920000
	115.550609	1449.839354	23.924000	-5.910000
	115.650615	1449.839354	23.924000	-5.910000
	115.750621	1449.840619	23.926000	-5.890000
	115.850626	1449.848211	23.890000	-5.840000
	115.950632	1449.854537	23.874000	-5.850000
	116.050638	1449.855803	23.884000	-5.890000
	116.150644	1449.850742	23.872000	-5.940000
	116.250649	1449.831764	23.922000	-6.050000
	116.350655	1449.834295	23.938000	-5.880000
	116.450661	1449.835560	23.922000	-5.890000
	116.550666	1449.845682	23.910000	-5.820000
	116.650672	1449.852008	23.882000	-5.850000
	116.750678	1449.850743	23.864000	-5.910000
	116.850684	1449.849478	23.898000	-5.910000
	116.950689	1449.845682	23.890000	-5.930000
	117.050695	1449.845682	23.890000	-5.930000
	117.150701	1449.843152	23.896000	-5.920000
	117.250707	1449.848213	23.902000	-5.860000
	117.350712	1449.860866	23.886000	-5.800000
	117.450718	1449.870988	23.858000	-5.820000
	117.550724	1449.865927	23.860000	-5.940000
	117.650730	1449.852010	23.902000	-6.010000
	117.750735	1449.848214	23.894000	-5.930000
	117.850741	1449.849480	23.928000	-5.890000
	117.950747	1449.852010	23.906000	-5.880000
	118.049752	1449.862132	23.886000	-5.820000
	118.149758	1449.860867	23.894000	-5.910000
	118.249763	1449.854541	23.870000	-5.950000
	118.349770	1449.848215	23.874000	-5.950000
	118.449775	1449.843154	23.908000	-5.940000
	118.549781	1449.846950	23.918000	-5.870000
	118.649786	1449.846950	23.918000	-5.870000
	118.749792	1449.854542	23.888000	-5.840000
	118.849798	1449.860868	23.876000	-5.850000
	118.949804	1449.857072	23.874000	-5.930000
	119.049809	1449.860868	23.876000	-5.870000
	119.149815	1449.855807	23.910000	-5.940000
	119.249821	1449.853277	23.926000	-5.920000
	119.349826	1449.857072	23.894000	-5.870000
	119.449832	1449.859603	23.888000	-5.880000
	119.549838	1449.862133	23.874000	-5.880000
	119.649844	1449.855807	23.872000	-5.950000
	119.749849	1449.849481	23.924000	-5.950000
	119.849855	1449.843155	23.906000	-5.950000
	119.949861	1449.844420	23.908000	-5.890000
	120.049867	1449.852012	23.886000	-5.840000
	120.149872	1449.848216	23.858000	-5.930000
	120.249878	1449.840625	23.846000	-5.960000
	120.349884	1449.840625	23.846000	-5.960000
	120.449890	1449.835564	23.878000	-5.940000
	120.549895	1449.838095	23.920000	-5.880000
	120.649901	1449.844421	23.914000	-5.850000
	120.749907	1449.853278	23.870000	-5.830000
	120.849912	1449.853278	23.878000	-5.900000
	120.949918	1449.841891	23.880000	-5.990000
	121.049924	1449.839361	23.892000	-5.920000
	121.149930	1449.839361	23.922000	-5.900000
	121.249935	1449.845687	23.884000	-5.850000
	121.349941	1449.852013	23.854000	-5.850000
	121.449947	1449.848218	23.878000	-5.930000
	121.549953	1449.841892	23.892000	-5.950000
	121.650958	1449.836831	23.886000	-5.940000
	121.749964	1449.835566	23.896000	-5.910000
	121.849969	1449.835566	23.896000	-5.910000
	121.949975	1449.838096	23.896000	-5.880000
	122.049981	1449.844422	23.868000	-5.850000
	122.149987	1449.840627	23.880000	-5.930000
	122.249992	1449.838096	23.886000	-5.920000
	122.349998	1449.839362	23.906000	-5.890000
	122.450004	1449.841892	23.894000	-5.880000
	122.550010	1449.853280	23.876000	-5.810000
	122.650015	1449.852014	23.868000	-5.910000
	122.750021	1449.848219	23.888000	-5.930000
	122.850027	1449.845688	23.910000	-5.920000
	122.950033	1449.844423	23.902000	-5.910000
	123.050038	1449.845688	23.892000	-5.890000
	123.150044	1449.854545	23.864000	-5.830000
	123.251050	1449.846954	23.862000	-5.960000
	123.350055	1449.835567	23.912000	-5.990000
	123.450061	1449.835567	23.912000	-5.990000
	123.550067	1449.830506	23.904000	-5.940000
	123.650073	1449.838098	23.896000	-5.840000
	123.750078	1449.848220	23.896000	-5.820000
	123.850084	1449.850751	23.876000	-5.880000
	123.950090	1449.841894	23.888000	-5.970000
	124.050096	1449.835568	23.898000	-5.950000
	124.150101	1449.836833	23.898000	-5.890000
	124.250107	1449.848221	23.894000	-5.810000
	124.350112	1449.858343	23.874000	-5.820000
	124.450119	1449.862139	23.874000	-5.870000
	124.550124	1449.857078	23.860000	-5.940000
	124.651130	1449.843161	23.892000	-6.010000
	124.750135	1449.846957	23.914000	-5.870000
	124.850141	1449.846957	23.914000	-5.870000
	124.950147	1449.860875	23.902000	-5.790000
	125.050153	1449.873528	23.912000	-5.800000
	125.150158	1449.873528	23.868000	-5.900000
	125.250164	1449.870997	23.876000	-5.920000
	125.350170	1449.862141	23.876000	-5.970000
	125.450176	1449.854550	23.914000	-5.960000
	125.550181	1449.859611	23.922000	-5.860000
	125.650187	1449.867202	23.910000	-5.840000
	125.750193	1449.865937	23.876000	-5.910000
	125.850198	1449.855815	23.904000	-5.980000
	125.950204	1449.846959	23.884000	-5.970000
	126.050210	1449.846959	23.884000	-5.900000
	126.150216	1449.849490	23.904000	-5.880000
	126.250221	1449.855816	23.874000	-5.850000
	126.350227	1449.855816	23.874000	-5.850000
	126.450233	1449.858346	23.864000	-5.880000
	126.550239	1449.855816	23.856000	-5.920000
	126.650244	1449.853285	23.882000	-5.920000
	126.750250	1449.845694	23.896000	-5.960000
	126.850255	1449.845694	23.912000	-5.900000
	126.950262	1449.853286	23.906000	-5.840000
	127.050267	1449.854551	23.870000	-5.890000
	127.150273	1449.860877	23.892000	-5.850000
	127.250278	1449.855816	23.866000	-5.940000
	127.350284	1449.853286	23.878000	-5.920000
	127.450290	1449.852021	23.896000	-5.910000
	127.550296	1449.862143	23.902000	-5.820000
	127.650301	1449.869735	23.896000	-5.840000
	127.750307	1449.869735	23.896000	-5.840000
	127.850313	1449.872265	23.884000	-5.880000
	127.950318	1449.867204	23.868000	-5.940000
	128.050324	1449.858348	23.900000	-5.970000
	128.150330	1449.858348	23.928000	-5.900000
	128.250336	1449.865939	23.898000	-5.840000
	128.300339	1449.876062	23.880000	-5.820000
	128.450347	1449.883654	23.866000	-5.840000
	128.550353	1449.878593	23.878000	-5.940000
	128.650359	1449.869736	23.888000	-5.970000
	128.750364	1449.868471	23.908000	-5.910000
	128.850370	1449.871001	23.918000	-5.880000
	128.950376	1449.872267	23.896000	-5.890000
	129.050382	1449.872267	23.856000	-5.900000
	129.150387	1449.868471	23.860000	-5.930000
	129.250393	1449.860880	23.884000	-5.960000
	129.350399	1449.858349	23.900000	-5.920000
	129.450404	1449.858349	23.900000	-5.920000
	129.550410	1449.867206	23.918000	-5.830000
	129.650416	1449.877328	23.882000	-5.820000
	129.750422	1449.879859	23.856000	-5.880000
	129.850427	1449.874798	23.860000	-5.940000
	129.950433	1449.864676	23.870000	-5.980000
	130.050439	1449.864676	23.898000	-5.900000
	130.150445	1449.869737	23.928000	-5.860000
	130.250450	1449.882390	23.884000	-5.800000
	130.350456	1449.884921	23.862000	-5.880000
	130.450461	1449.878595	23.890000	-5.950000
	130.550467	1449.869738	23.882000	-5.970000
	130.650473	1449.871004	23.914000	-5.890000
	130.750479	1449.877330	23.882000	-5.850000
	130.850484	1449.886187	23.866000	-5.830000
	130.950490	1449.883656	23.858000	-5.920000
	131.050496	1449.876065	23.866000	-5.960000
	131.150502	1449.876065	23.866000	-5.960000
	131.250507	1449.862148	23.914000	-6.010000
	131.350513	1449.863413	23.908000	-5.890000
	131.450519	1449.873536	23.886000	-5.820000
	131.550524	1449.877331	23.884000	-5.870000
	131.650530	1449.874801	23.870000	-5.920000
	131.750536	1449.863414	23.888000	-5.990000
	131.850542	1449.864679	23.914000	-5.890000
	131.950547	1449.868475	23.904000	-5.870000
	132.050553	1449.872271	23.882000	-5.870000
	132.150559	1449.876067	23.862000	-5.870000
	132.250565	1449.876067	23.870000	-5.900000
	132.350570	1449.865945	23.872000	-5.980000
	132.450576	1449.863414	23.906000	-5.920000
	132.550581	1449.863414	23.906000	-5.920000
	132.650588	1449.867210	23.904000	-5.870000
	132.750593	1449.876067	23.862000	-5.830000
	132.850599	1449.872272	23.818000	-5.930000
	132.950604	1449.865945	23.868000	-5.950000
	133.050610	1449.858354	23.878000	-5.960000
	133.150616	1449.855824	23.906000	-5.920000
	133.250622	1449.859619	23.874000	-5.870000
	133.350627	1449.871007	23.872000	-5.810000
	133.450633	1449.881129	23.866000	-5.820000
	133.550639	1449.882395	23.842000	-5.890000
	133.650645	1449.874803	23.874000	-5.960000
	133.750650	1449.872273	23.914000	-5.920000
	133.850656	1449.877334	23.896000	-5.860000
	133.950662	1449.884926	23.892000	-5.840000
	134.050667	1449.887456	23.872000	-5.880000
	134.150673	1449.892517	23.856000	-5.860000
	134.250679	1449.892517	23.856000	-5.860000
	134.350685	1449.886191	23.844000	-5.950000
	134.450690	1449.873539	23.860000	-6.000000
	134.550696	1449.872274	23.918000	-5.910000
	134.650702	1449.876070	23.916000	-5.870000
	134.750708	1449.881131	23.892000	-5.860000
	134.850713	1449.888722	23.882000	-5.840000
	134.950719	1449.883662	23.864000	-5.940000
	135.050725	1449.881131	23.848000	-5.920000
	135.150730	1449.877335	23.878000	-5.930000
	135.250736	1449.869744	23.886000	-5.960000
	135.350742	1449.865948	23.856000	-5.930000
	135.450747	1449.865948	23.856000	-5.930000
	135.549753	1449.858357	23.884000	-5.960000
	135.649759	1449.852031	23.896000	-5.950000
	135.749764	1449.852031	23.912000	-5.900000
	135.849771	1449.855827	23.884000	-5.870000
	135.949776	1449.867214	23.882000	-5.810000
	136.049782	1449.879867	23.886000	-5.800000
	136.149787	1449.888724	23.862000	-5.830000
	136.249793	1449.884929	23.860000	-5.930000
	136.349799	1449.892520	23.834000	-5.840000
	136.449805	1449.886194	23.852000	-5.950000
	136.549810	1449.876072	23.864000	-5.980000
	136.649816	1449.868481	23.866000	-5.960000
	136.749822	1449.862155	23.892000	-5.950000
	136.849828	1449.857094	23.906000	-5.940000
	136.949833	1449.857094	23.906000	-5.940000
	137.049839	1449.862155	23.900000	-5.860000
	137.149845	1449.862155	23.896000	-5.900000
	137.249850	1449.869747	23.894000	-5.840000
	137.349856	1449.873543	23.904000	-5.870000
	137.449862	1449.877338	23.894000	-5.870000
	137.549868	1449.882400	23.894000	-5.860000
	137.649873	1449.889991	23.876000	-5.840000
	137.749879	1449.896318	23.888000	-5.850000
	137.849885	1449.896318	23.838000	-5.900000
	137.949891	1449.892522	23.862000	-5.930000
	138.049896	1449.888726	23.836000	-5.930000
	138.149902	1449.887461	23.878000	-5.910000
	138.249907	1449.882400	23.868000	-5.940000
	138.349914	1449.874809	23.874000	-5.960000
	138.449919	1449.874809	23.874000	-5.960000
	138.549925	1449.869748	23.858000	-5.940000
	138.649930	1449.862156	23.864000	-5.960000
	138.749936	1449.859626	23.878000	-5.920000
	138.849942	1449.859626	23.880000	-5.900000
	138.949948	1449.857095	23.872000	-5.920000
	139.049953	1449.858361	23.910000	-5.890000
	139.149959	1449.862156	23.912000	-5.870000
	139.249965	1449.862156	23.896000	-5.900000
	139.349970	1449.867218	23.892000	-5.860000
	139.449976	1449.874809	23.898000	-5.840000
	139.549982	1449.878605	23.898000	-5.870000
	139.649988	1449.881136	23.898000	-5.880000
	139.749993	1449.881136	23.898000	-5.880000
	139.849999	1449.882401	23.914000	-5.890000
	139.950005	1449.886197	23.896000	-5.870000
	140.050011	1449.884931	23.888000	-5.910000
	140.150016	1449.884931	23.902000	-5.900000
	140.250022	1449.888727	23.896000	-5.870000
	140.350028	1449.892523	23.884000	-5.870000
	140.450034	1449.897584	23.880000	-5.860000
	140.550039	1449.896319	23.868000	-5.910000
	140.650045	1449.898850	23.844000	-5.880000
	140.750051	1449.902645	23.862000	-5.870000
	140.850056	1449.900115	23.848000	-5.920000
	140.950062	1449.897584	23.868000	-5.920000
	141.050068	1449.893789	23.860000	-5.930000
	141.150074	1449.888728	23.858000	-5.940000
	141.250079	1449.874810	23.864000	-6.010000
	141.350085	1449.874810	23.864000	-6.010000
	141.450091	1449.871015	23.856000	-5.930000
	141.550097	1449.867219	23.872000	-5.930000
	141.650102	1449.867219	23.850000	-5.900000
	141.750108	1449.860893	23.872000	-5.950000
	141.850113	1449.859628	23.904000	-5.910000
	141.950119	1449.863423	23.930000	-5.870000
	142.050125	1449.817881	24.064000	-6.260000
	142.150131	1449.824207	23.922000	-5.850000
	142.250136	1449.836860	23.902000	-5.800000
	142.350142	1449.853309	23.894000	-5.770000
	142.450148	1449.859635	23.876000	-5.850000
	142.550154	1449.868492	23.884000	-5.830000
	142.650159	1449.872288	23.904000	-5.870000
	142.750165	1449.882410	23.858000	-5.820000
	142.850171	1449.895063	23.882000	-5.800000
	142.950176	1449.895063	23.882000	-5.800000
	143.050182	1449.897594	23.858000	-5.880000
	143.150188	1449.893798	23.860000	-5.930000
	143.250194	1449.900125	23.860000	-5.850000
	143.350199	1449.895064	23.876000	-5.940000
	143.450205	1449.888737	23.872000	-5.950000
	143.550211	1449.882411	23.864000	-5.950000
	143.650217	1449.883677	23.874000	-5.890000
	143.750222	1449.871024	23.856000	-6.000000
	143.850228	1449.867229	23.886000	-5.930000
	143.950233	1449.860903	23.902000	-5.950000
	144.050240	1449.855842	23.914000	-5.940000
	144.150245	1449.848251	23.904000	-5.960000
	144.250251	1449.852046	23.902000	-5.870000
	144.350256	1449.857107	23.892000	-5.860000
	144.451262	1449.858373	23.902000	-5.890000
	144.550268	1449.858373	23.902000	-5.890000
	144.650274	1449.860903	23.918000	-5.880000
	144.750279	1449.864699	23.904000	-5.870000
	144.850285	1449.873556	23.902000	-5.830000
	144.950291	1449.879882	23.868000	-5.850000
	145.050297	1449.882413	23.928000	-5.880000
	145.150302	1449.888739	23.898000	-5.850000
	145.250308	1449.892535	23.896000	-5.870000
	145.350314	1449.892535	23.870000	-5.900000
	145.450319	1449.891270	23.840000	-5.910000
	145.550325	1449.893800	23.886000	-5.880000
	145.650331	1449.901392	23.866000	-5.840000
	145.750337	1449.897596	23.858000	-5.930000
	145.850342	1449.896331	23.854000	-5.910000
	145.950348	1449.892535	23.854000	-5.930000
	146.050354	1449.892535	23.854000	-5.930000
	146.150360	1449.891270	23.858000	-5.910000
	146.250365	1449.897597	23.860000	-5.850000
	146.350371	1449.896331	23.844000	-5.910000
	146.450377	1449.890005	23.854000	-5.950000
	146.550382	1449.886209	23.866000	-5.930000
	146.650388	1449.878618	23.874000	-5.960000
	146.750394	1449.871027	23.886000	-5.960000
	146.850399	1449.868496	23.888000	-5.920000
	146.950405	1449.868496	23.888000	-5.900000
	147.050411	1449.863435	23.888000	-5.940000
	147.150417	1449.863435	23.860000	-5.900000
	147.250422	1449.863435	23.876000	-5.900000
	147.350428	1449.863435	23.876000	-5.900000
	147.450434	1449.864700	23.884000	-5.890000
	147.550439	1449.859640	23.896000	-5.940000
	147.650445	1449.854579	23.902000	-5.940000
	147.750451	1449.855844	23.902000	-5.890000
	147.850457	1449.855844	23.910000	-5.900000
	147.950462	1449.863436	23.918000	-5.840000
	148.050468	1449.873558	23.896000	-5.820000
	148.150474	1449.881150	23.896000	-5.840000
	148.250480	1449.884945	23.896000	-5.870000
	148.350485	1449.890007	23.880000	-5.860000
	148.450491	1449.891272	23.862000	-5.890000
	148.550497	1449.888741	23.870000	-5.920000
	148.650503	1449.891272	23.874000	-5.880000
	148.750508	1449.892537	23.846000	-5.890000
	148.850514	1449.892537	23.846000	-5.890000
	148.950520	1449.886211	23.854000	-5.950000
	149.050525	1449.881150	23.850000	-5.940000
	149.150531	1449.872293	23.876000	-5.970000
	149.250537	1449.872293	23.868000	-5.900000
	149.350543	1449.862172	23.862000	-5.980000
	149.450548	1449.857111	23.864000	-5.940000
	149.550554	1449.850785	23.878000	-5.950000
	149.650560	1449.854581	23.898000	-5.870000
	149.750566	1449.860907	23.882000	-5.850000
	149.850571	1449.862172	23.910000	-5.890000
	149.950577	1449.865968	23.920000	-5.870000
	150.050582	1449.873560	23.906000	-5.840000
	150.150588	1449.873560	23.906000	-5.840000
	150.250594	1449.877355	23.880000	-5.870000
	150.350600	1449.882416	23.886000	-5.860000
	150.450605	1449.896335	23.870000	-5.790000
	150.550611	1449.900131	23.850000	-5.870000
	150.650617	1449.900131	23.856000	-5.900000
	150.750623	1449.902661	23.858000	-5.880000
	150.850628	1449.901396	23.868000	-5.910000
	150.950634	1449.896335	23.872000	-5.940000
	151.050640	1449.888744	23.846000	-5.960000
	151.150645	1449.877357	23.884000	-5.990000
	151.250651	1449.872296	23.896000	-5.940000
	151.350657	1449.867235	23.892000	-5.940000
	151.450663	1449.862174	23.892000	-5.940000
	151.550668	1449.862174	23.892000	-5.940000
	151.650674	1449.854583	23.880000	-5.960000
	151.751680	1449.854583	23.904000	-5.900000
	151.850686	1449.859644	23.894000	-5.860000
	151.950691	1449.854583	23.892000	-5.940000
	152.050697	1449.858379	23.898000	-5.870000
	152.150702	1449.860909	23.902000	-5.880000
	152.250709	1449.869766	23.886000	-5.830000
	152.350714	1449.873562	23.882000	-5.870000
	152.450720	1449.882419	23.870000	-5.830000
	152.550725	1449.893807	23.868000	-5.810000
	152.650731	1449.898868	23.868000	-5.860000
	152.750737	1449.901399	23.846000	-5.880000
	152.850743	1449.900133	23.886000	-5.910000
	152.950748	1449.891277	23.874000	-5.970000
	153.049754	1449.891277	23.874000	-5.970000
	153.149760	1449.881155	23.882000	-5.980000
	153.249765	1449.878624	23.906000	-5.920000
	153.349771	1449.874829	23.896000	-5.930000
	153.449777	1449.872298	23.892000	-5.920000
	153.549783	1449.881155	23.890000	-5.830000
	153.649788	1449.890012	23.884000	-5.830000
	153.749794	1449.892543	23.900000	-5.880000
	153.850800	1449.895073	23.868000	-5.880000
	153.949806	1449.900135	23.892000	-5.860000
	154.049811	1449.906461	23.894000	-5.850000
	154.149817	1449.914053	23.868000	-5.840000
	154.249823	1449.912788	23.870000	-5.910000
	154.349828	1449.912788	23.870000	-5.910000
	154.453835	1449.908992	23.874000	-5.930000
	154.549840	1449.903931	23.846000	-5.940000
	154.649846	1449.898870	23.862000	-5.940000
	154.751852	1449.895074	23.860000	-5.930000
	154.849857	1449.886217	23.868000	-5.970000
	154.949863	1449.878626	23.872000	-5.960000
	155.049869	1449.878626	23.892000	-5.900000
	155.149874	1449.873565	23.892000	-5.940000
	155.249880	1449.874830	23.900000	-5.890000
	155.349885	1449.867239	23.886000	-5.960000
	155.449892	1449.873565	23.902000	-5.850000
	155.555897	1449.871035	23.876000	-5.920000
	155.649903	1449.876096	23.898000	-5.860000
	155.749908	1449.876096	23.898000	-5.860000
	155.849914	1449.879892	23.890000	-5.870000
	155.949920	1449.886218	23.900000	-5.850000
	156.049926	1449.882422	23.924000	-5.930000
	156.149931	1449.884953	23.912000	-5.880000
	156.249937	1449.887484	23.874000	-5.880000
	156.349943	1449.891279	23.892000	-5.870000
	156.449949	1449.892545	23.894000	-5.890000
	156.549954	1449.898871	23.884000	-5.850000
	156.649960	1449.902667	23.878000	-5.870000
	156.749966	1449.903932	23.868000	-5.890000
	156.849971	1449.912790	23.874000	-5.830000
	156.949977	1449.907728	23.882000	-5.940000
	157.049983	1449.906463	23.856000	-5.910000
	157.149989	1449.906463	23.856000	-5.910000
	157.249994	1449.902667	23.864000	-5.930000
	157.350000	1449.902667	23.850000	-5.900000
	157.450006	1449.898872	23.870000	-5.930000
	157.550012	1449.892545	23.862000	-5.950000
	157.650017	1449.886219	23.828000	-5.950000
	157.750023	1449.883689	23.876000	-5.920000
	157.850029	1449.968490	22.798000	-5.230000
	157.950034	1450.015316	23.588000	-5.530000
	158.050040	1450.054548	23.594000	-5.590000
	158.150046	1450.076062	23.592000	-5.730000
	158.250051	1450.096310	23.568000	-5.740000
	158.357058	1450.120355	23.578000	-5.710000
	158.450063	1450.135542	23.586000	-5.780000
	158.550069	1450.135542	23.586000	-5.780000
	158.650074	1450.153260	23.596000	-5.760000
	158.750080	1450.168447	23.574000	-5.780000
	158.850086	1450.181102	23.580000	-5.800000
	158.950091	1450.187430	23.574000	-5.850000
	159.053097	1450.198820	23.546000	-5.810000
	159.150103	1450.200086	23.594000	-5.890000
	159.250109	1450.206414	23.578000	-5.850000
	159.350114	1450.208945	23.594000	-5.880000
	159.450120	1450.211476	23.548000	-5.880000
	159.551126	1450.215273	23.586000	-5.870000
	159.650132	1450.225397	23.586000	-5.820000
	159.750137	1450.227928	23.562000	-5.880000
	159.850143	1450.226663	23.570000	-5.910000
	159.950149	1450.227928	23.570000	-5.890000
	160.050155	1450.229194	23.582000	-5.890000
	160.150160	1450.231725	23.572000	-5.880000
	160.250166	1450.231725	23.572000	-5.880000
	160.350172	1450.238053	23.582000	-5.850000
	160.450177	1450.238053	23.576000	-5.900000
	160.550183	1450.238053	23.550000	-5.900000
	160.650189	1450.238053	23.588000	-5.900000
	160.750195	1450.238053	23.562000	-5.900000
	160.850200	1450.245647	23.582000	-5.840000
	160.950206	1450.249444	23.588000	-5.870000
	161.050212	1450.250709	23.562000	-5.890000
	161.150218	1450.250709	23.578000	-5.900000
	161.250223	1450.246912	23.580000	-5.930000
	161.350229	1450.255772	23.596000	-5.830000
	161.450234	1450.257037	23.582000	-5.890000
	161.550241	1450.260834	23.602000	-5.870000
	161.650246	1450.269694	23.630000	-5.830000
	161.750252	1450.269694	23.630000	-5.830000
	161.850257	1450.267162	23.600000	-5.920000
	161.950263	1450.265897	23.620000	-5.910000
	162.050269	1450.264631	23.618000	-5.910000
	162.150275	1450.258303	23.596000	-5.950000
	162.250280	1450.253241	23.606000	-5.940000
	162.350286	1450.250710	23.624000	-5.920000
	162.450292	1450.258304	23.604000	-5.840000
	162.550298	1450.257038	23.638000	-5.910000
	162.650303	1450.249445	23.616000	-5.960000
	162.750309	1450.243117	23.624000	-5.950000
	162.850315	1450.238055	23.602000	-5.940000
	162.950320	1450.238055	23.616000	-5.900000
	163.050326	1450.232993	23.618000	-5.940000
	163.150332	1450.226665	23.616000	-5.950000
	163.250338	1450.226665	23.616000	-5.950000
	163.350343	1450.222868	23.628000	-5.930000
	163.450349	1450.216541	23.610000	-5.950000
	163.550355	1450.210213	23.618000	-5.950000
	163.650361	1450.208947	23.628000	-5.910000
	163.750366	1450.208947	23.634000	-5.900000
	163.850372	1450.200089	23.606000	-5.970000
	163.951378	1450.201354	23.618000	-5.890000
	164.050384	1450.198823	23.634000	-5.920000
	164.150389	1450.196292	23.612000	-5.920000
	164.250395	1450.196292	23.608000	-5.900000
	164.350400	1450.189965	23.606000	-5.950000
	164.450406	1450.192496	23.614000	-5.880000
	164.550412	1450.197558	23.624000	-5.860000
	164.657418	1450.196293	23.630000	-5.910000
	164.750423	1450.196293	23.596000	-5.900000
	164.850429	1450.196293	23.596000	-5.900000
	164.950435	1450.203886	23.610000	-5.840000
	165.050441	1450.203886	23.602000	-5.900000
	165.150446	1450.202620	23.604000	-5.910000
	165.250452	1450.200089	23.606000	-5.920000
	165.350458	1450.197558	23.598000	-5.920000
	165.450463	1450.195027	23.594000	-5.920000
	165.550469	1450.192496	23.604000	-5.920000
	165.650475	1450.188700	23.604000	-5.930000
	165.750481	1450.193762	23.602000	-5.860000
	165.863487	1450.189965	23.578000	-5.930000
	165.950492	1450.188700	23.606000	-5.910000
	166.050498	1450.189965	23.600000	-5.890000
	166.150504	1450.192496	23.600000	-5.880000
	166.250509	1450.144413	23.604000	-6.280000
	166.350515	1450.154538	23.558000	-5.820000
	166.450521	1450.154538	23.558000	-5.820000
	166.550526	1450.164662	23.590000	-5.820000
	166.650532	1450.165928	23.606000	-5.890000
	166.760539	1450.178583	23.556000	-5.800000
	166.850543	1450.188708	23.586000	-5.820000
	166.950549	1450.198832	23.602000	-5.820000
	167.050555	1450.206426	23.574000	-5.840000
	167.150561	1450.214019	23.612000	-5.840000
	167.250566	1450.217816	23.592000	-5.870000
	167.350572	1450.225409	23.620000	-5.840000
	167.450578	1450.227941	23.626000	-5.880000
	167.550583	1450.231737	23.614000	-5.870000
	167.651589	1450.236800	23.604000	-5.860000
	167.750595	1450.230472	23.614000	-5.950000
	167.850601	1450.221613	23.614000	-5.970000
	167.950606	1450.220348	23.610000	-5.910000
	168.050612	1450.220348	23.610000	-5.910000
	168.150618	1450.217817	23.588000	-5.920000
	168.250624	1450.211489	23.578000	-5.950000
	168.360630	1450.207692	23.604000	-5.930000
	168.450635	1450.205161	23.598000	-5.920000
	168.550641	1450.197568	23.578000	-5.960000
	168.650647	1450.195037	23.570000	-5.920000
	168.750652	1450.193772	23.580000	-5.910000
	168.850658	1450.200100	23.590000	-5.850000
	168.950664	1450.202631	23.582000	-5.880000
	169.050669	1450.208958	23.586000	-5.850000
	169.155675	1450.216552	23.612000	-5.840000
	169.250681	1450.221614	23.634000	-5.860000
	169.350687	1450.221614	23.626000	-5.900000
	169.450692	1450.221614	23.626000	-5.900000
	169.550698	1450.216552	23.632000	-5.940000
	169.650703	1450.217818	23.634000	-5.890000
	169.750710	1450.211490	23.596000	-5.950000
	169.850715	1450.211490	23.598000	-5.900000
	169.950721	1450.202631	23.584000	-5.970000
	170.050726	1450.202631	23.578000	-5.900000
	170.150732	1450.207694	23.580000	-5.860000
	170.250738	1450.210225	23.582000	-5.880000
	170.350744	1450.222881	23.546000	-5.800000
	170.450749	1450.230474	23.582000	-5.840000
	170.549755	1450.234271	23.588000	-5.870000
	170.649761	1450.239333	23.620000	-5.860000
	170.749766	1450.241865	23.612000	-5.880000
	170.849772	1450.239334	23.620000	-5.920000
	170.949778	1450.239334	23.620000	-5.920000
	171.049784	1450.231740	23.632000	-5.960000
	171.149789	1450.224147	23.608000	-5.960000
	171.249795	1450.216554	23.586000	-5.960000
	171.349801	1450.208961	23.564000	-5.960000
	171.449807	1450.208961	23.594000	-5.900000
	171.549812	1450.214023	23.594000	-5.860000
	171.649818	1450.224148	23.580000	-5.820000
	171.749824	1450.224148	23.606000	-5.900000
	171.849830	1450.233007	23.604000	-5.830000
	171.949835	1450.234273	23.594000	-5.890000
	172.049841	1450.227945	23.608000	-5.950000
	172.149847	1450.229210	23.626000	-5.890000
	172.249852	1450.229210	23.602000	-5.900000
	172.349858	1450.229210	23.602000	-5.900000
	172.449864	1450.222883	23.614000	-5.950000
	172.549870	1450.219086	23.590000	-5.930000
	172.649875	1450.214024	23.606000	-5.940000
	172.749881	1450.212758	23.602000	-5.910000
	172.849887	1450.203900	23.612000	-5.970000
	172.949893	1450.200103	23.588000	-5.930000
	173.049898	1450.200103	23.568000	-5.900000
	173.149904	1450.200103	23.568000	-5.900000
	173.249909	1450.202634	23.598000	-5.880000
	173.349915	1450.211493	23.580000	-5.830000
	173.449921	1450.212759	23.600000	-5.890000
	173.549927	1450.217821	23.606000	-5.860000
	173.649932	1450.221618	23.622000	-5.870000
	173.749938	1450.219087	23.630000	-5.920000
	173.849944	1450.217821	23.602000	-5.910000
	173.949950	1450.217821	23.602000	-5.910000
	174.058956	1450.210228	23.616000	-5.960000
	174.149961	1450.215291	23.586000	-5.860000
	174.249967	1450.207697	23.590000	-5.960000
	174.349972	1450.211494	23.572000	-5.870000
	174.449978	1450.214025	23.578000	-5.880000
	174.549984	1450.225416	23.558000	-5.810000
	174.649990	1450.231744	23.600000	-5.850000
	174.749995	1450.231744	23.610000	-5.900000
	174.850001	1450.234275	23.632000	-5.880000
	174.950007	1450.236806	23.610000	-5.880000
	175.050013	1450.231744	23.618000	-5.940000
	175.155018	1450.226682	23.600000	-5.940000
	175.250024	1450.221619	23.556000	-5.940000
	175.350029	1450.214026	23.584000	-5.960000
	175.450036	1450.214026	23.584000	-5.960000
	175.556041	1450.216557	23.594000	-5.880000
	175.650047	1450.220354	23.564000	-5.870000
	175.750052	1450.225416	23.594000	-5.860000
	175.850058	1450.233010	23.588000	-5.840000
	175.950064	1450.235541	23.606000	-5.880000
	176.050070	1450.233010	23.616000	-5.920000
	176.150075	1450.230479	23.630000	-5.920000
	176.250081	1450.229213	23.592000	-5.910000
	176.350087	1450.220355	23.584000	-5.970000
	176.450093	1450.221620	23.572000	-5.890000
	176.550098	1450.219089	23.586000	-5.920000
	176.650104	1450.221620	23.592000	-5.880000
	176.750110	1450.227948	23.598000	-5.850000
	176.850115	1450.235542	23.594000	-5.840000
	176.950121	1450.235542	23.594000	-5.840000
	177.050127	1450.229214	23.604000	-5.950000
	177.150133	1450.229214	23.628000	-5.900000
	177.250138	1450.220355	23.598000	-5.970000
	177.350144	1450.219090	23.632000	-5.910000
	177.450150	1450.211497	23.606000	-5.960000
	177.550156	1450.207700	23.612000	-5.930000
	177.650161	1450.207700	23.588000	-5.900000
	177.750167	1450.208966	23.584000	-5.890000
	177.850173	1450.208966	23.606000	-5.900000
	177.950178	1450.217825	23.620000	-5.830000
	178.050184	1450.214028	23.610000	-5.930000
	178.150190	1450.210232	23.612000	-5.930000
	178.250196	1450.202638	23.618000	-5.960000
	178.352201	1450.198842	23.606000	-5.930000
	178.450207	1450.203904	23.596000	-5.860000
	178.550213	1450.203904	23.596000	-5.860000
	178.650218	1450.210232	23.594000	-5.850000
	178.750224	1450.216560	23.570000	-5.850000
	178.850230	1450.217825	23.602000	-5.890000
	178.950235	1450.216560	23.620000	-5.910000
	179.050241	1450.208967	23.628000	-5.960000
	179.150247	1450.208967	23.622000	-5.900000
	179.250253	1450.201374	23.604000	-5.960000
	179.350258	1450.197577	23.606000	-5.930000
	179.450264	1450.196312	23.612000	-5.910000
	179.551270	1450.202639	23.580000	-5.850000
	179.650276	1450.201374	23.612000	-5.910000
	179.750281	1450.201374	23.624000	-5.900000
	179.850287	1450.201374	23.604000	-5.900000
	179.950293	1450.195046	23.596000	-5.950000
	180.050299	1450.195046	23.596000	-5.950000
	180.150304	1450.191250	23.596000	-5.930000
	180.250310	1450.197577	23.576000	-5.850000
	180.350316	1450.203905	23.590000	-5.850000
	180.450321	1450.206436	23.604000	-5.880000
	180.558328	1450.203905	23.604000	-5.920000
	180.650333	1450.205171	23.624000	-5.890000
	180.750339	1450.191251	23.606000	-6.010000
	180.850344	1450.192516	23.584000	-5.890000
	180.950350	1450.191251	23.588000	-5.910000
	181.050355	1450.202641	23.598000	-5.810000
	181.150362	1450.210234	23.586000	-5.840000
	181.250367	1450.212765	23.610000	-5.880000
	181.355373	1450.207703	23.610000	-5.940000
	181.450378	1450.205172	23.616000	-5.920000
	181.550384	1450.202641	23.608000	-5.920000
	181.650390	1450.201376	23.594000	-5.910000
	181.750396	1450.201376	23.594000	-5.910000
	181.850401	1450.202641	23.580000	-5.890000
	181.954407	1450.211500	23.594000	-5.830000
	182.050413	1450.219094	23.620000	-5.840000
	182.150419	1450.217828	23.640000	-5.910000
	182.250424	1450.217828	23.636000	-5.900000
	182.350430	1450.208970	23.592000	-5.970000
	182.450436	1450.205173	23.572000	-5.930000
	182.550441	1450.208970	23.594000	-5.870000
	182.650447	1450.217829	23.618000	-5.830000
	182.750453	1450.222891	23.602000	-5.860000
	182.850459	1450.220360	23.616000	-5.920000
	182.950464	1450.216563	23.624000	-5.930000
	183.050470	1450.201377	23.606000	-6.020000
	183.159476	1450.202643	23.574000	-5.890000
	183.250482	1450.202643	23.574000	-5.890000
	183.351487	1450.208971	23.602000	-5.850000
	183.450493	1450.215299	23.564000	-5.850000
	183.550498	1450.217830	23.614000	-5.880000
	183.650505	1450.212768	23.630000	-5.940000
	183.750510	1450.207706	23.612000	-5.940000
	183.861516	1450.200113	23.590000	-5.960000
	183.950521	1450.201378	23.576000	-5.890000
	184.050527	1450.207706	23.580000	-5.850000
	184.150533	1450.210237	23.594000	-5.880000
	184.250539	1450.212768	23.610000	-5.880000
	184.350544	1450.212768	23.590000	-5.900000
	184.450550	1450.198848	23.622000	-6.010000
	184.550556	1450.193786	23.596000	-5.940000
	184.650561	1450.193786	23.596000	-5.940000
	184.750567	1450.189989	23.590000	-5.930000
	184.850573	1450.195051	23.616000	-5.860000
	184.950579	1450.200114	23.624000	-5.860000
	185.050584	1450.192521	23.632000	-5.960000
	185.150590	1450.184928	23.608000	-5.960000
	185.250596	1450.178600	23.608000	-5.950000
	185.350602	1450.184928	23.586000	-5.850000
	185.450607	1450.192521	23.604000	-5.840000
	185.550613	1450.196318	23.602000	-5.870000
	185.650619	1450.197583	23.610000	-5.890000
	185.750625	1450.203911	23.628000	-5.850000
	185.850630	1450.201380	23.622000	-5.920000
	185.950636	1450.193787	23.620000	-5.960000
	186.050642	1450.183663	23.592000	-5.980000
	186.150647	1450.183663	23.592000	-5.980000
	186.250653	1450.183663	23.596000	-5.900000
	186.350659	1450.187460	23.578000	-5.870000
	186.450665	1450.191256	23.606000	-5.870000
	186.550670	1450.196319	23.638000	-5.860000
	186.650676	1450.193788	23.636000	-5.920000
	186.750682	1450.192522	23.588000	-5.910000
	186.855688	1450.192522	23.608000	-5.900000
	186.950693	1450.192522	23.588000	-5.900000
	187.050699	1450.197584	23.582000	-5.860000
	187.150704	1450.202646	23.610000	-5.860000
	187.269711	1450.196319	23.622000	-5.950000
	187.350716	1450.188726	23.602000	-5.960000
	187.450722	1450.188726	23.602000	-5.960000
	187.550727	1450.186195	23.612000	-5.920000
	187.650733	1450.187460	23.594000	-5.890000
	187.765740	1450.197585	23.594000	-5.820000
	187.850745	1450.203913	23.624000	-5.850000
	187.950750	1450.200116	23.614000	-5.930000
	188.049756	1450.197585	23.604000	-5.920000
	188.150762	1450.197585	23.588000	-5.900000
	188.249767	1450.200116	23.584000	-5.880000
	188.349773	1450.197585	23.600000	-5.920000
	188.449779	1450.197585	23.600000	-5.920000
	188.549785	1450.192523	23.624000	-5.940000
	188.649790	1450.189992	23.634000	-5.920000
	188.749796	1450.186196	23.614000	-5.930000
	188.849802	1450.187461	23.590000	-5.890000
	188.949808	1450.196320	23.602000	-5.830000
	189.050813	1450.201382	23.606000	-5.860000
	189.149819	1450.200117	23.620000	-5.910000
	189.249825	1450.198851	23.634000	-5.910000
	189.349830	1450.193789	23.624000	-5.940000
	189.458837	1450.184931	23.588000	-5.970000
	189.549842	1450.188727	23.586000	-5.870000
	189.649848	1450.187462	23.612000	-5.910000
	189.749853	1450.193790	23.608000	-5.850000
	189.849859	1450.193790	23.608000	-5.850000
	189.949865	1450.197586	23.618000	-5.870000
	190.049870	1450.195055	23.618000	-5.920000
	190.149876	1450.191259	23.634000	-5.930000
	190.249882	1450.186197	23.620000	-5.940000
	190.349887	1450.178604	23.608000	-5.960000
	190.449893	1450.176073	23.598000	-5.920000
	190.558899	1450.178604	23.580000	-5.880000
	190.649905	1450.183666	23.582000	-5.860000
	190.749910	1450.187462	23.606000	-5.870000
	190.849916	1450.186197	23.610000	-5.910000
	190.949922	1450.193790	23.640000	-5.840000
	191.049928	1450.192525	23.632000	-5.910000
	191.149933	1450.192525	23.632000	-5.910000
	191.249939	1450.187463	23.596000	-5.940000
	191.349945	1450.188728	23.590000	-5.890000
	191.449951	1450.197587	23.584000	-5.830000
	191.549956	1450.198853	23.618000	-5.890000
	191.649962	1450.198853	23.638000	-5.900000
	191.749968	1450.189994	23.612000	-5.970000
	191.849973	1450.182401	23.626000	-5.960000
	191.952979	1450.172277	23.608000	-5.980000
	192.049985	1450.172277	23.604000	-5.900000
	192.149991	1450.183668	23.576000	-5.810000
	192.249996	1450.188730	23.612000	-5.860000
	192.350002	1450.189995	23.606000	-5.890000
	192.450007	1450.189995	23.628000	-5.900000
	192.550014	1450.193792	23.640000	-5.870000
	192.650019	1450.187464	23.624000	-5.950000
	192.750025	1450.184933	23.608000	-5.920000
	192.850030	1450.184933	23.608000	-5.920000
	192.950036	1450.183668	23.620000	-5.910000
	193.050042	1450.177340	23.600000	-5.950000
	193.150048	1450.181137	23.608000	-5.870000
	193.250053	1450.191261	23.618000	-5.820000
	193.350059	1450.198855	23.616000	-5.840000
	193.450065	1450.197589	23.656000	-5.910000
	193.550071	1450.187465	23.606000	-5.980000
	193.650076	1450.174811	23.618000	-6.000000
	193.750082	1450.162156	23.596000	-6.000000
	193.851088	1450.162156	23.602000	-5.900000
	193.950093	1450.173546	23.596000	-5.810000
	194.050099	1450.179874	23.612000	-5.850000
	194.150105	1450.189998	23.602000	-5.820000
	194.250111	1450.186202	23.636000	-5.930000
	194.350116	1450.186202	23.636000	-5.930000
	194.450122	1450.183671	23.624000	-5.920000
	194.550128	1450.172281	23.614000	-5.990000
	194.650134	1450.165954	23.616000	-5.950000
	194.750139	1450.164688	23.582000	-5.910000
	194.850145	1450.169751	23.600000	-5.860000
	194.950150	1450.176078	23.586000	-5.850000
	195.050157	1450.182406	23.586000	-5.850000
	195.150162	1450.184937	23.636000	-5.880000
	195.250168	1450.187468	23.612000	-5.880000
	195.350173	1450.178610	23.624000	-5.970000
	195.450179	1450.171017	23.578000	-5.960000
	195.550185	1450.171017	23.602000	-5.900000
	195.650191	1450.174813	23.600000	-5.870000
	195.751196	1450.177344	23.612000	-5.880000
	195.850202	1450.177344	23.612000	-5.880000
	195.950208	1450.176079	23.632000	-5.910000
	196.050214	1450.179876	23.624000	-5.870000
	196.150219	1450.176079	23.630000	-5.930000
	196.250225	1450.172283	23.626000	-5.930000
	196.350231	1450.171017	23.582000	-5.910000
	196.450236	1450.173548	23.598000	-5.880000
	196.550242	1450.177345	23.612000	-5.870000
	196.650248	1450.186204	23.612000	-5.830000
	196.750254	1450.192531	23.630000	-5.850000
	196.850259	1450.191266	23.614000	-5.910000
	196.950265	1450.181142	23.612000	-5.980000
	197.050271	1450.173549	23.594000	-5.960000
	197.150277	1450.177346	23.596000	-5.870000
	197.250282	1450.181142	23.586000	-5.870000
	197.350288	1450.187470	23.602000	-5.850000
	197.450294	1450.187470	23.602000	-5.850000
	197.552299	1450.191267	23.634000	-5.870000
	197.650305	1450.191267	23.608000	-5.900000
	197.750311	1450.186205	23.656000	-5.940000
	197.850317	1450.178612	23.616000	-5.960000
	197.950322	1450.172284	23.630000	-5.950000
	198.050328	1450.174815	23.592000	-5.880000
	198.150334	1450.177346	23.598000	-5.880000
	198.250340	1450.184940	23.600000	-5.840000
	198.350345	1450.181143	23.636000	-5.930000
	198.450351	1450.178612	23.638000	-5.920000
	198.550357	1450.172285	23.624000	-5.950000
	198.650362	1450.173550	23.600000	-5.890000
	198.750368	1450.174816	23.600000	-5.890000
	198.850374	1450.179878	23.602000	-5.860000
	198.950379	1450.179878	23.602000	-5.860000
	199.050385	1450.181143	23.614000	-5.890000
	199.150391	1450.178612	23.622000	-5.920000
	199.250397	1450.178612	23.614000	-5.900000
	199.350402	1450.173550	23.626000	-5.940000
	199.450408	1450.163426	23.630000	-5.980000
	199.550414	1450.162161	23.610000	-5.910000
	199.650420	1450.164692	23.600000	-5.880000
	199.750425	1450.163426	23.592000	-5.910000
	199.850431	1450.167223	23.596000	-5.870000
	199.950437	1450.173551	23.618000	-5.850000
	200.050443	1450.177347	23.640000	-5.870000
	200.150448	1450.173551	23.644000	-5.930000
	200.250454	1450.173551	23.618000	-5.900000
	200.350460	1450.178613	23.624000	-5.860000
	200.450465	1450.178613	23.624000	-5.860000
	200.550471	1450.174816	23.606000	-5.930000
	200.650477	1450.171020	23.582000	-5.930000
	200.750483	1450.178613	23.624000	-5.840000
	200.850488	1450.183675	23.592000	-5.860000
	200.950494	1450.190003	23.620000	-5.850000
	201.050499	1450.190003	23.628000	-5.900000
	201.150506	1450.187472	23.634000	-5.920000
	201.250511	1450.177348	23.638000	-5.980000
	201.350517	1450.167224	23.632000	-5.980000
	201.450522	1450.165959	23.610000	-5.910000
	201.550528	1450.163428	23.598000	-5.920000
	201.650534	1450.165959	23.614000	-5.880000
	201.750540	1450.168490	23.596000	-5.880000
	201.850545	1450.181146	23.640000	-5.800000
	201.950551	1450.181146	23.626000	-5.900000
	202.050557	1450.181146	23.626000	-5.900000
	202.150563	1450.182411	23.624000	-5.890000
	202.250568	1450.173553	23.642000	-5.970000
	202.350574	1450.164694	23.608000	-5.970000
	202.450580	1450.163429	23.596000	-5.910000
	202.550585	1450.168491	23.606000	-5.860000
	202.650591	1450.178616	23.594000	-5.820000
	202.750597	1450.191271	23.602000	-5.800000
	202.850603	1450.192537	23.638000	-5.890000
	202.950608	1450.196333	23.624000	-5.870000
	203.050614	1450.192537	23.642000	-5.930000
	203.150620	1450.182413	23.624000	-5.980000
	203.250626	1450.174820	23.630000	-5.960000
	203.350631	1450.179882	23.592000	-5.860000
	203.450637	1450.182413	23.594000	-5.880000
	203.550642	1450.182413	23.594000	-5.880000
	203.650649	1450.195069	23.608000	-5.800000
	203.750654	1450.200131	23.602000	-5.860000
	203.850660	1450.200131	23.650000	-5.900000
	203.950665	1450.193804	23.642000	-5.950000
	204.050671	1450.186211	23.638000	-5.960000
	204.150677	1450.182414	23.606000	-5.930000
	204.251683	1450.184945	23.610000	-5.880000
	204.350688	1450.186211	23.626000	-5.890000
	204.450694	1450.192539	23.652000	-5.850000
	204.550700	1450.191273	23.618000	-5.910000
	204.650705	1450.178618	23.636000	-6.000000
	204.750711	1450.178618	23.636000	-6.000000
	204.850717	1450.172291	23.620000	-5.950000
	204.950723	1450.167229	23.602000	-5.940000
	205.050728	1450.172291	23.612000	-5.860000
	205.150734	1450.173557	23.604000	-5.890000
	205.250740	1450.181150	23.616000	-5.840000
	205.350746	1450.188743	23.624000	-5.840000
	205.450751	1450.190009	23.626000	-5.890000
	205.549757	1450.177354	23.630000	-6.000000
	205.649763	1450.174823	23.628000	-5.920000
	205.749768	1450.167230	23.618000	-5.960000
	205.849774	1450.165965	23.594000	-5.910000
	205.949780	1450.164699	23.592000	-5.910000
	206.049786	1450.171027	23.596000	-5.850000
	206.150791	1450.176089	23.618000	-5.860000
	206.249797	1450.182417	23.640000	-5.850000
	206.349803	1450.182417	23.640000	-5.850000
	206.449809	1450.182417	23.624000	-5.900000
	206.549814	1450.178620	23.644000	-5.930000
	206.649820	1450.174824	23.610000	-5.930000
	206.749825	1450.167231	23.622000	-5.960000
	206.849832	1450.164700	23.604000	-5.920000
	206.949837	1450.160903	23.594000	-5.930000
	207.049843	1450.163434	23.600000	-5.880000
	207.149848	1450.169762	23.614000	-5.850000
	207.249854	1450.177355	23.642000	-5.840000
	207.349860	1450.178621	23.642000	-5.890000
	207.449866	1450.176090	23.644000	-5.920000
	207.549871	1450.176090	23.638000	-5.900000
	207.649877	1450.173559	23.630000	-5.920000
	207.749883	1450.172293	23.624000	-5.910000
	207.849889	1450.167231	23.586000	-5.940000
	207.949894	1450.167231	23.606000	-5.900000
	208.049900	1450.167231	23.606000	-5.900000
	208.149906	1450.167231	23.598000	-5.900000
	208.249911	1450.176090	23.614000	-5.830000
	208.349917	1450.178621	23.626000	-5.880000
	208.449923	1450.176090	23.630000	-5.920000
	208.549929	1450.174825	23.638000	-5.910000
	208.649934	1450.162170	23.636000	-6.000000
	208.749940	1450.162170	23.596000	-5.900000
	208.849946	1450.163435	23.602000	-5.890000
	208.949952	1450.172294	23.616000	-5.830000
	209.049957	1450.177356	23.606000	-5.860000
	209.149963	1450.178622	23.632000	-5.890000
	209.249969	1450.178622	23.632000	-5.890000
	209.349974	1450.178622	23.676000	-5.900000
	209.449980	1450.171029	23.638000	-5.960000
	209.549986	1450.169763	23.634000	-5.910000
	209.649992	1450.162171	23.608000	-5.960000
	209.749997	1450.162171	23.596000	-5.900000
	209.850003	1450.163436	23.590000	-5.890000
	209.950009	1450.168498	23.616000	-5.860000
	210.050014	1450.176091	23.596000	-5.840000
	210.150020	1450.174826	23.622000	-5.910000
	210.250026	1450.178623	23.648000	-5.870000
	210.350031	1450.181154	23.648000	-5.880000
	210.450037	1450.181154	23.650000	-5.900000
	210.550043	1450.172295	23.622000	-5.970000
	210.650049	1450.165968	23.618000	-5.950000
	210.750054	1450.165968	23.600000	-5.900000
	210.850060	1450.165968	23.600000	-5.900000
	210.950066	1450.169764	23.594000	-5.870000
	211.050072	1450.173561	23.590000	-5.870000
	211.150077	1450.174826	23.618000	-5.890000
	211.250083	1450.173561	23.636000	-5.910000
	211.350089	1450.174827	23.608000	-5.890000
	211.450095	1450.176092	23.640000	-5.890000
	211.550100	1450.167234	23.626000	-5.970000
	211.650106	1450.162172	23.646000	-5.940000
	211.750112	1450.155844	23.604000	-5.950000
	211.850117	1450.150782	23.604000	-5.940000
	211.950123	1450.154579	23.602000	-5.870000
	212.050129	1450.155844	23.604000	-5.890000
	212.150135	1450.160907	23.596000	-5.860000
	212.250140	1450.160907	23.596000	-5.860000
	212.350146	1450.169765	23.598000	-5.830000
	212.450151	1450.169765	23.614000	-5.900000
	212.550158	1450.169765	23.650000	-5.900000
	212.650163	1450.168500	23.642000	-5.910000
	212.750169	1450.169765	23.640000	-5.890000
	212.850174	1450.164703	23.636000	-5.940000
	212.950180	1450.158376	23.630000	-5.950000
	213.050186	1450.150783	23.638000	-5.960000
	213.150192	1450.152049	23.604000	-5.890000
	213.250197	1450.159642	23.596000	-5.840000
	213.350203	1450.165970	23.604000	-5.850000
	213.450209	1450.173563	23.616000	-5.840000
	213.550215	1450.184953	23.602000	-5.810000
	213.650220	1450.184953	23.602000	-5.810000
	213.750226	1450.183687	23.618000	-5.910000
	213.850232	1450.187484	23.632000	-5.870000
	213.950237	1450.188750	23.622000	-5.890000
	214.050243	1450.190015	23.628000	-5.890000
	214.150249	1450.186218	23.650000	-5.930000
	214.250255	1450.178626	23.630000	-5.960000
	214.350260	1450.172298	23.634000	-5.950000
	214.450266	1450.163440	23.632000	-5.970000
	214.550272	1450.160909	23.616000	-5.920000
	214.650278	1450.160909	23.616000	-5.900000
	214.750283	1450.164705	23.614000	-5.870000
	214.850289	1450.163440	23.594000	-5.910000
	214.950294	1450.167236	23.598000	-5.870000
	215.050301	1450.173564	23.612000	-5.850000
	215.150306	1450.174830	23.608000	-5.890000
	215.250312	1450.176095	23.628000	-5.890000
	215.350317	1450.176095	23.628000	-5.890000
	215.450323	1450.177361	23.638000	-5.890000
	215.550329	1450.174830	23.642000	-5.920000
	215.650335	1450.168502	23.622000	-5.950000
	215.750340	1450.163440	23.620000	-5.940000
	215.850346	1450.160909	23.618000	-5.920000
	215.950352	1450.162175	23.602000	-5.890000
	216.050357	1450.162175	23.604000	-5.900000
	216.150363	1450.163440	23.592000	-5.890000
	216.250369	1450.164706	23.596000	-5.890000
	216.350375	1450.172299	23.598000	-5.840000
	216.450380	1450.176096	23.622000	-5.870000
	216.550386	1450.183689	23.634000	-5.840000
	216.650392	1450.184954	23.628000	-5.890000
	216.750398	1450.184954	23.632000	-5.900000
	216.850403	1450.179892	23.634000	-5.940000
	216.950409	1450.179892	23.634000	-5.940000
	217.050415	1450.176096	23.634000	-5.930000
	217.150421	1450.171034	23.634000	-5.940000
	217.250426	1450.163441	23.610000	-5.960000
	217.350432	1450.165972	23.604000	-5.880000
	217.450438	1450.163441	23.610000	-5.920000
	217.550443	1450.167238	23.608000	-5.870000
	217.650449	1450.171034	23.586000	-5.870000
	217.750455	1450.181159	23.594000	-5.820000
	217.850461	1450.176097	23.628000	-5.940000
	217.950466	1450.174831	23.620000	-5.910000
	218.050472	1450.171035	23.620000	-5.930000
	218.150478	1450.171035	23.620000	-5.930000
	218.250484	1450.160911	23.618000	-5.980000
	218.350489	1450.157114	23.612000	-5.930000
	218.450495	1450.152053	23.618000	-5.940000
	218.550500	1450.149522	23.620000	-5.920000
	218.650506	1450.146991	23.598000	-5.920000
	218.750512	1450.149522	23.614000	-5.880000
	218.850518	1450.159646	23.596000	-5.820000
	218.950523	1450.168505	23.606000	-5.830000
	219.050529	1450.173567	23.598000	-5.860000
	219.150535	1450.174832	23.596000	-5.890000
	219.250541	1450.169770	23.648000	-5.940000
	219.350546	1450.168505	23.622000	-5.910000
	219.450552	1450.167239	23.612000	-5.910000
	219.550558	1450.167239	23.612000	-5.910000
	219.650563	1450.162177	23.612000	-5.940000
	219.750569	1450.157116	23.606000	-5.940000
	219.850575	1450.158381	23.600000	-5.890000
	219.950581	1450.164709	23.622000	-5.850000
	220.050586	1450.164709	23.594000	-5.900000
	220.150592	1450.176099	23.608000	-5.810000
	220.250598	1450.184958	23.638000	-5.830000
	220.350604	1450.187489	23.634000	-5.880000
	220.450609	1450.190020	23.628000	-5.880000
	220.550615	1450.188754	23.644000	-5.910000
	220.650620	1450.186223	23.658000	-5.920000
	220.750627	1450.177365	23.622000	-5.970000
	220.850632	1450.177365	23.630000	-5.900000
	220.950638	1450.172303	23.616000	-5.940000
	221.050643	1450.168506	23.618000	-5.930000
	221.150649	1450.168506	23.618000	-5.930000
	221.250655	1450.164710	23.594000	-5.930000
	221.350661	1450.162179	23.598000	-5.920000
	221.450666	1450.165975	23.606000	-5.870000
	221.550672	1450.168506	23.602000	-5.880000
	221.650678	1450.177365	23.612000	-5.830000
	221.750684	1450.184959	23.634000	-5.840000
	221.850689	1450.182428	23.638000	-5.920000
	221.950695	1450.183693	23.630000	-5.890000
	222.050701	1450.173569	23.648000	-5.980000
	222.150706	1450.174835	23.640000	-5.890000
	222.250712	1450.167242	23.624000	-5.960000
	222.350718	1450.154587	23.608000	-6.000000
	222.450724	1450.144464	23.634000	-5.980000
	222.550729	1450.148260	23.598000	-5.870000
	222.650735	1450.148260	23.598000	-5.870000
	222.750741	1450.154588	23.600000	-5.850000
	222.850747	1450.162181	23.602000	-5.840000
	222.949752	1450.168509	23.620000	-5.850000
	223.049758	1450.178633	23.634000	-5.820000
	223.149764	1450.188758	23.654000	-5.820000
	223.249769	1450.190023	23.638000	-5.890000
	223.349775	1450.186227	23.666000	-5.930000
	223.449781	1450.181165	23.644000	-5.940000
	223.549787	1450.172306	23.638000	-5.970000
	223.649792	1450.172306	23.652000	-5.900000
	223.749798	1450.163448	23.606000	-5.970000
	223.849803	1450.155855	23.612000	-5.960000
	223.949810	1450.157121	23.594000	-5.890000
	224.049815	1450.158386	23.608000	-5.890000
	224.149821	1450.167245	23.600000	-5.830000
	224.249826	1450.167245	23.600000	-5.830000
	224.349832	1450.174838	23.626000	-5.840000
	224.449838	1450.178635	23.636000	-5.870000
	224.549844	1450.182431	23.620000	-5.870000
	224.649849	1450.181166	23.646000	-5.910000
	224.749855	1450.173573	23.630000	-5.960000
	224.849861	1450.167245	23.632000	-5.950000
	224.949867	1450.159653	23.634000	-5.960000
	225.049872	1450.150794	23.632000	-5.970000
	225.149878	1450.150794	23.608000	-5.900000
	225.249884	1450.150794	23.578000	-5.900000
	225.349889	1450.153325	23.602000	-5.880000
	225.449895	1450.162184	23.624000	-5.830000
	225.549901	1450.173574	23.620000	-5.810000
	225.649907	1450.173574	23.620000	-5.810000
	225.749912	1450.174840	23.634000	-5.890000
	225.849918	1450.177371	23.650000	-5.880000
	225.949924	1450.178636	23.652000	-5.890000
	226.049930	1450.164716	23.620000	-6.010000
	226.149935	1450.157123	23.642000	-5.960000
	226.249941	1450.153327	23.640000	-5.930000
	226.349946	1450.143203	23.638000	-5.980000
	226.449953	1450.140672	23.620000	-5.920000
	226.549958	1450.140672	23.604000	-5.900000
	226.649964	1450.154593	23.602000	-5.790000
	226.749969	1450.159655	23.622000	-5.860000
	226.849975	1450.173577	23.614000	-5.790000
	226.949981	1450.174842	23.624000	-5.890000
	227.049987	1450.174842	23.650000	-5.900000
	227.149992	1450.173577	23.640000	-5.910000
	227.249998	1450.173577	23.640000	-5.910000
	227.350004	1450.169780	23.646000	-5.930000
	227.450009	1450.165984	23.642000	-5.930000
	227.550015	1450.162187	23.614000	-5.930000
	227.650021	1450.162187	23.642000	-5.900000
	227.750027	1450.095129	23.908000	-6.430000
	227.850032	1450.062231	23.848000	-6.160000
	227.950038	1450.036925	23.844000	-6.100000
	228.050044	1450.009088	23.828000	-6.120000
	228.150050	1449.996435	23.862000	-6.000000
	228.250055	1449.988843	23.838000	-5.960000
	228.350061	1449.982517	23.864000	-5.950000
	228.450067	1449.977455	23.844000	-5.940000
	228.550073	1449.976190	23.874000	-5.910000
	228.650078	1449.972394	23.868000	-5.930000
	228.750084	1449.971129	23.880000	-5.910000
	228.850090	1449.971129	23.880000	-5.910000
	228.950095	1449.961006	23.868000	-5.980000
	229.050101	1449.952149	23.890000	-5.970000
	229.150107	1449.943292	23.888000	-5.970000
	229.250113	1449.939496	23.888000	-5.930000
	229.350118	1449.929374	23.884000	-5.980000
	229.450124	1449.923048	23.884000	-5.950000
	229.550130	1449.915456	23.872000	-5.960000
	229.650136	1449.906599	23.864000	-5.970000
	229.750141	1449.902804	23.848000	-5.930000
	229.850147	1449.900273	23.840000	-5.920000
	229.950152	1449.900273	23.888000	-5.900000
	230.050159	1449.900273	23.874000	-5.900000
	230.150164	1449.901538	23.864000	-5.890000
	230.250170	1449.896477	23.856000	-5.940000
	230.350175	1449.896477	23.856000	-5.940000
	230.450181	1449.893947	23.858000	-5.920000
	230.550187	1449.904069	23.834000	-5.820000
	230.650193	1449.905335	23.832000	-5.890000
	230.750198	1449.911661	23.854000	-5.850000
	230.850204	1449.921784	23.858000	-5.820000
	230.950210	1449.925580	23.838000	-5.870000
	231.050215	1449.929376	23.850000	-5.870000
	231.150221	1449.935702	23.838000	-5.850000
	231.250227	1449.936968	23.852000	-5.890000
	231.350233	1449.939498	23.858000	-5.880000
	231.450238	1449.948356	23.876000	-5.830000
	231.550244	1449.952152	23.898000	-5.870000
	231.650250	1449.950887	23.886000	-5.910000
	231.750256	1449.945825	23.896000	-5.940000
	231.850261	1449.943295	23.888000	-5.920000
	231.950267	1449.943295	23.888000	-5.920000
	232.050272	1449.940764	23.862000	-5.920000
	232.150279	1449.934438	23.868000	-5.950000
	232.250284	1449.930642	23.888000	-5.930000
	232.350290	1449.928111	23.872000	-5.920000
	232.450295	1449.921785	23.878000	-5.950000
	232.550301	1449.914193	23.846000	-5.960000
	232.650307	1449.911663	23.890000	-5.920000
	232.750313	1449.902806	23.874000	-5.970000
	232.877320	1449.902806	23.838000	-5.900000
	232.950324	1449.904071	23.842000	-5.890000
	233.050330	1449.904071	23.842000	-5.890000
	233.150336	1449.910398	23.846000	-5.850000
	233.250341	1449.921786	23.828000	-5.810000
	233.350347	1449.921786	23.850000	-5.900000
	233.500356	1449.926847	23.866000	-5.860000
	233.600361	1449.935704	23.876000	-5.830000
	233.700367	1449.943297	23.868000	-5.840000
	233.800373	1449.942031	23.878000	-5.910000
	233.900379	1449.939501	23.882000	-5.920000
	234.000384	1449.943297	23.894000	-5.870000
	234.100390	1449.940766	23.880000	-5.920000
	234.200396	1449.933174	23.892000	-5.960000
	234.300401	1449.935705	23.906000	-5.880000
	234.400407	1449.929379	23.884000	-5.950000
	234.500413	1449.925583	23.888000	-5.930000
	234.600419	1449.920522	23.880000	-5.940000
	234.704424	1449.920522	23.880000	-5.940000
	234.800430	1449.909134	23.890000	-5.990000
	234.900436	1449.899012	23.886000	-5.980000
	235.000442	1449.901543	23.880000	-5.880000
	235.100447	1449.895217	23.878000	-5.950000
	235.200453	1449.895217	23.872000	-5.900000
	235.300458	1449.892686	23.846000	-5.920000
	235.400465	1449.891421	23.858000	-5.910000
	235.500470	1449.890156	23.870000	-5.910000
	235.600476	1449.891421	23.860000	-5.890000
	235.700481	1449.890156	23.864000	-5.910000
	235.800487	1449.896482	23.854000	-5.850000
	235.900493	1449.905339	23.854000	-5.830000
	236.000499	1449.897748	23.856000	-5.960000
	236.100504	1449.901544	23.862000	-5.870000
	236.200510	1449.901544	23.862000	-5.870000
	236.300516	1449.901544	23.842000	-5.900000
	236.400522	1449.899013	23.820000	-5.920000
	236.500527	1449.900279	23.842000	-5.890000
	236.600533	1449.900279	23.868000	-5.900000
	236.700539	1449.900279	23.830000	-5.900000
	236.800544	1449.897748	23.866000	-5.920000
	236.900550	1449.895217	23.848000	-5.920000
	237.000556	1449.901544	23.848000	-5.850000
	237.100562	1449.901544	23.872000	-5.900000
	237.200567	1449.905340	23.858000	-5.870000
	237.300573	1449.904075	23.852000	-5.910000
	237.400579	1449.907870	23.852000	-5.870000
	237.500585	1449.912932	23.826000	-5.860000
	237.550587	1449.912932	23.826000	-5.860000
	237.700596	1449.915462	23.838000	-5.880000
	237.800601	1449.919258	23.860000	-5.870000
	237.900608	1449.923054	23.826000	-5.870000
	238.000613	1449.929381	23.838000	-5.850000
	238.100619	1449.936973	23.836000	-5.840000
	238.200624	1449.940769	23.828000	-5.870000
	238.304630	1449.940769	23.830000	-5.900000
	238.401636	1449.942034	23.850000	-5.890000
	238.500642	1449.948361	23.832000	-5.850000
	238.600647	1449.949626	23.862000	-5.890000
	238.700653	1449.948361	23.828000	-5.910000
	238.800659	1449.949626	23.846000	-5.890000
	238.900664	1449.947095	23.822000	-5.920000
	239.000670	1449.947095	23.822000	-5.920000
	239.100676	1449.942034	23.838000	-5.940000
	239.203682	1449.939504	23.840000	-5.920000
	239.300687	1449.940769	23.858000	-5.890000
	239.350690	1449.942034	23.844000	-5.890000
	239.509699	1449.940769	23.842000	-5.910000
	239.600705	1449.940769	23.830000	-5.900000
	239.700710	1449.944565	23.866000	-5.870000
	239.802716	1449.947096	23.844000	-5.880000
	239.902722	1449.950892	23.836000	-5.870000
	240.000728	1449.943300	23.846000	-5.960000
	240.100733	1449.934443	23.840000	-5.970000
	240.200739	1449.938239	23.846000	-5.870000
	240.300745	1449.942035	23.848000	-5.870000
	240.400750	1449.943300	23.832000	-5.890000
	240.499756	1449.944566	23.832000	-5.890000
	240.599761	1449.944566	23.832000	-5.890000
	240.699768	1449.943300	23.846000	-5.910000
	240.799773	1449.940770	23.832000	-5.920000
	240.899779	1449.938239	23.842000	-5.920000
	240.999784	1449.940770	23.838000	-5.880000
	241.099790	1449.945831	23.836000	-5.860000
	241.199796	1449.949627	23.826000	-5.870000
	241.299802	1449.952158	23.858000	-5.880000
	241.399807	1449.957219	23.832000	-5.860000
	241.510814	1449.953423	23.828000	-5.930000
	241.599819	1449.958485	23.830000	-5.860000
	241.699825	1449.954689	23.840000	-5.930000
	241.799830	1449.955954	23.840000	-5.890000
	241.899836	1449.955954	23.858000	-5.900000
	241.999842	1449.955954	23.858000	-5.900000
	242.099847	1449.959750	23.856000	-5.870000
	242.199853	1449.963546	23.828000	-5.870000
	242.299859	1449.967342	23.850000	-5.870000
	242.399865	1449.969873	23.826000	-5.880000
	242.499870	1449.969873	23.840000	-5.900000
	242.599876	1449.964811	23.844000	-5.940000
	242.704882	1449.968608	23.850000	-5.870000
	242.799888	1449.974934	23.846000	-5.850000
	242.899893	1449.972404	23.838000	-5.920000
	242.999899	1449.976200	23.866000	-5.870000
	243.099905	1449.979996	23.848000	-5.870000
	243.213911	1449.977465	23.856000	-5.920000
	243.299916	1449.976200	23.872000	-5.910000
	243.399922	1449.973669	23.860000	-5.920000
	243.499928	1449.971138	23.850000	-5.920000
	243.599933	1449.974935	23.864000	-5.870000
	243.699939	1449.974935	23.864000	-5.870000
	243.799945	1449.973669	23.870000	-5.910000
	243.899951	1449.973669	23.860000	-5.900000
	243.999956	1449.978731	23.876000	-5.860000
	244.099962	1449.973669	23.844000	-5.940000
	244.199968	1449.974935	23.838000	-5.890000
	244.299973	1449.983792	23.960000	-5.830000
	244.399979	1449.990119	23.894000	-5.850000
	244.499985	1449.990119	23.886000	-5.900000
	244.599990	1449.985058	23.880000	-5.940000
	244.699996	1449.976201	23.884000	-5.970000
	244.800002	1449.973670	23.902000	-5.920000
	244.900008	1449.967344	23.874000	-5.950000
	245.000013	1449.957221	23.884000	-5.980000
	245.100019	1449.953425	23.874000	-5.930000
	245.200025	1449.948364	23.856000	-5.940000
	245.300031	1449.948364	23.856000	-5.940000
	245.400036	1449.944568	23.884000	-5.930000
	245.500042	1449.942038	23.886000	-5.920000
	245.600048	1449.940772	23.890000	-5.910000
	245.703053	1449.938242	23.864000	-5.920000
	245.800059	1449.935711	23.864000	-5.920000
	245.900065	1449.929385	23.888000	-5.950000
	246.000071	1449.929385	23.882000	-5.900000
	246.100076	1449.916732	23.878000	-6.000000
	246.200082	1449.917997	23.876000	-5.890000
	246.300088	1449.921793	23.872000	-5.870000
	246.400094	1449.919263	23.852000	-5.920000
	246.500099	1449.916732	23.862000	-5.920000
	246.600105	1449.919263	23.836000	-5.880000
	246.700110	1449.920528	23.844000	-5.890000
	246.800117	1449.920528	23.844000	-5.890000
	246.900122	1449.917998	23.866000	-5.920000
	247.000128	1449.921794	23.868000	-5.870000
	247.100133	1449.923059	23.836000	-5.890000
	247.200139	1449.929385	23.844000	-5.850000
	247.300145	1449.935712	23.844000	-5.850000
	247.401151	1449.939508	23.846000	-5.870000
	247.500156	1449.944569	23.838000	-5.860000
	247.603162	1449.949631	23.870000	-5.860000
	247.700168	1449.952161	23.882000	-5.880000
	247.800174	1449.953427	23.844000	-5.890000
	247.900179	1449.957223	23.870000	-5.870000
	248.000185	1449.952162	23.866000	-5.940000
	248.100191	1449.962284	23.878000	-5.820000
	248.200196	1449.961019	23.892000	-5.910000
	248.311203	1449.955958	23.888000	-5.940000
	248.402208	1449.955958	23.888000	-5.940000
	248.500214	1449.949631	23.862000	-5.950000
	248.600219	1449.939509	23.856000	-5.980000
	248.700225	1449.934448	23.862000	-5.940000
	248.813231	1449.931917	23.860000	-5.920000
	248.909237	1449.930652	23.832000	-5.910000
	249.000242	1449.930652	23.858000	-5.900000
	249.109249	1449.933183	23.834000	-5.880000
	249.200253	1449.930652	23.846000	-5.920000
	249.300260	1449.938244	23.832000	-5.840000
	249.400265	1449.947102	23.838000	-5.830000
	249.500271	1449.953428	23.840000	-5.850000
	249.600276	1449.954694	23.864000	-5.890000
	249.700282	1449.961020	23.856000	-5.850000
	249.800288	1449.962286	23.870000	-5.890000
	249.909294	1449.964816	23.868000	-5.880000
	250.003300	1449.964816	23.868000	-5.880000
	250.100305	1449.962286	23.878000	-5.920000
	250.206311	1449.957225	23.864000	-5.940000
	250.300316	1449.948368	23.878000	-5.970000
	250.400322	1449.940776	23.882000	-5.960000
	250.500328	1449.944572	23.886000	-5.870000
	250.600334	1449.935715	23.862000	-5.970000
	250.700339	1449.934450	23.864000	-5.910000
	250.800345	1449.925593	23.860000	-5.970000
	250.900351	1449.921797	23.866000	-5.930000
	251.000357	1449.912940	23.856000	-5.970000
	251.100362	1449.916736	23.866000	-5.870000
	251.200368	1449.921797	23.844000	-5.860000
	251.300374	1449.921797	23.848000	-5.900000
	251.400380	1449.921797	23.848000	-5.900000
	251.500385	1449.924328	23.846000	-5.880000
	251.602391	1449.925593	23.870000	-5.890000
	251.700397	1449.924328	23.844000	-5.910000
	251.800402	1449.930655	23.842000	-5.850000
	251.900408	1449.934450	23.844000	-5.870000
	252.000414	1449.940777	23.856000	-5.850000
	252.109420	1449.948369	23.850000	-5.840000
	252.200425	1449.950900	23.868000	-5.880000
	252.300431	1449.950900	23.860000	-5.900000
	252.400437	1449.955961	23.878000	-5.860000
	252.500443	1449.962288	23.868000	-5.850000
	252.600448	1449.963553	23.858000	-5.890000
	252.700454	1449.964819	23.852000	-5.890000
	252.800459	1449.969880	23.880000	-5.860000
	252.909466	1449.969880	23.880000	-5.860000
	253.000471	1449.974942	23.868000	-5.860000
	253.109477	1449.980003	23.846000	-5.860000
	253.200482	1449.976207	23.872000	-5.930000
	253.300488	1449.977472	23.882000	-5.890000
	253.400494	1449.968615	23.882000	-5.970000
	253.500500	1449.972411	23.884000	-5.870000
	253.600505	1449.974942	23.880000	-5.880000
	253.709512	1449.972411	23.880000	-5.920000
	253.807517	1449.968615	23.880000	-5.930000
	253.900522	1449.969881	23.884000	-5.890000
	254.000528	1449.964819	23.870000	-5.940000
	254.100534	1449.958493	23.886000	-5.950000
	254.200540	1449.962289	23.878000	-5.870000
	254.300545	1449.953432	23.884000	-5.970000
	254.400551	1449.953432	23.884000	-5.970000
	254.500557	1449.955963	23.866000	-5.880000
	254.600563	1449.959759	23.900000	-5.870000
	254.700568	1449.959759	23.884000	-5.900000
	254.800574	1449.963555	23.892000	-5.870000
	254.900579	1449.963555	23.878000	-5.900000
	255.014586	1449.966085	23.900000	-5.880000
	255.100591	1449.963555	23.882000	-5.920000
	255.200597	1449.961024	23.890000	-5.920000
	255.300602	1449.963555	23.872000	-5.880000
	255.400608	1449.961024	23.878000	-5.920000
	255.503614	1449.953432	23.878000	-5.960000
	255.600620	1449.944575	23.874000	-5.970000
	255.700625	1449.947106	23.892000	-5.880000
	255.800631	1449.950902	23.876000	-5.870000
	255.900637	1449.950902	23.876000	-5.870000
	256.000643	1449.949637	23.858000	-5.910000
	256.100648	1449.943310	23.876000	-5.950000
	256.200654	1449.943310	23.892000	-5.900000
	256.300660	1449.944575	23.894000	-5.890000
	256.400665	1449.949637	23.912000	-5.860000
	256.500671	1449.950902	23.914000	-5.890000
	256.600677	1449.954698	23.906000	-5.870000
	256.700683	1449.958494	23.876000	-5.870000
	256.800688	1449.957229	23.876000	-5.910000
	256.900694	1449.961025	23.884000	-5.870000
	257.000700	1449.961025	23.886000	-5.900000
	257.100706	1449.955964	23.868000	-5.940000
	257.200711	1449.949637	23.894000	-5.950000
	257.300717	1449.949637	23.894000	-5.950000
	257.400723	1449.942045	23.890000	-5.960000
	257.500728	1449.939515	23.876000	-5.920000
	257.600734	1449.935719	23.882000	-5.930000
	257.700740	1449.935719	23.858000	-5.900000
	257.800745	1449.934454	23.886000	-5.910000
	257.900751	1449.934454	23.878000	-5.900000
	257.999757	1449.938250	23.894000	-5.870000
	258.099762	1449.935719	23.862000	-5.920000
	258.199769	1449.936984	23.896000	-5.890000
	258.299774	1449.934454	23.874000	-5.920000
	258.400780	1449.931923	23.894000	-5.920000
	258.499785	1449.929393	23.892000	-5.920000
	258.599791	1449.930658	23.884000	-5.890000
	258.699797	1449.929393	23.894000	-5.910000
	258.799803	1449.929393	23.878000	-5.900000
	258.899808	1449.929393	23.878000	-5.900000
	258.999814	1449.929393	23.876000	-5.900000
	259.099820	1449.924331	23.874000	-5.940000
	259.199826	1449.924331	23.880000	-5.900000
	259.299831	1449.921801	23.878000	-5.920000
	259.399837	1449.928128	23.870000	-5.850000
	259.499843	1449.925597	23.866000	-5.920000
	259.599848	1449.920536	23.878000	-5.940000
	259.699854	1449.920536	23.866000	-5.900000
	259.799860	1449.919271	23.892000	-5.910000
	259.899866	1449.916740	23.866000	-5.920000
	259.999871	1449.923067	23.890000	-5.850000
	260.099877	1449.928128	23.884000	-5.860000
	260.199883	1449.926863	23.908000	-5.910000
	260.303889	1449.923067	23.880000	-5.930000
	260.399894	1449.923067	23.880000	-5.930000
	260.499900	1449.926863	23.880000	-5.870000
	260.606906	1449.929393	23.890000	-5.880000
	260.699912	1449.931924	23.906000	-5.880000
	260.807918	1449.934455	23.912000	-5.880000
	260.903923	1449.936985	23.902000	-5.880000
	260.999928	1449.943312	23.894000	-5.850000
	261.099934	1449.949639	23.882000	-5.850000
	261.199940	1449.950904	23.880000	-5.890000
	261.299946	1449.947108	23.888000	-5.930000
	261.399951	1449.947108	23.878000	-5.900000
	261.499957	1449.949639	23.910000	-5.880000
	261.599963	1449.942047	23.904000	-5.960000
	261.699968	1449.939516	23.888000	-5.920000
	261.799974	1449.939516	23.888000	-5.920000
	261.899980	1449.934455	23.892000	-5.940000
	261.999986	1449.930659	23.892000	-5.930000
	262.099991	1449.933190	23.884000	-5.880000
	262.199997	1449.938251	23.892000	-5.860000
	262.300003	1449.938251	23.882000	-5.900000
	262.400009	1449.935721	23.880000	-5.920000
	262.500014	1449.929394	23.880000	-5.950000
	262.600020	1449.933190	23.892000	-5.870000
	262.700026	1449.933190	23.878000	-5.900000
	262.800032	1449.931925	23.902000	-5.910000
	262.900037	1449.934455	23.908000	-5.880000
	263.000043	1449.938251	23.896000	-5.870000
	263.100049	1449.942047	23.904000	-5.870000
	263.200054	1449.945843	23.888000	-5.870000
	263.300060	1449.945843	23.888000	-5.870000
	263.400066	1449.943313	23.896000	-5.920000
	263.500072	1449.940782	23.890000	-5.920000
	263.600077	1449.942048	23.882000	-5.890000
	263.700083	1449.943313	23.876000	-5.890000
	263.800089	1449.945843	23.890000	-5.880000
	263.901094	1449.950905	23.898000	-5.860000
	264.000100	1449.957232	23.876000	-5.850000
	264.100106	1449.961028	23.892000	-5.870000
	264.200111	1449.964824	23.874000	-5.870000
	264.300117	1449.969885	23.892000	-5.860000
	264.400123	1449.976212	23.852000	-5.850000
	264.500129	1449.983804	23.874000	-5.840000
	264.600134	1449.981273	23.870000	-5.920000
	264.700140	1449.981273	23.870000	-5.920000
	264.800146	1449.981273	23.906000	-5.900000
	264.900152	1449.978743	23.856000	-5.920000
	265.003158	1449.982539	23.876000	-5.870000
	265.108163	1449.981274	23.850000	-5.910000
	265.200169	1449.982539	23.864000	-5.890000
	265.300174	1449.987600	23.850000	-5.860000
	265.400180	1449.986335	23.860000	-5.910000
	265.500186	1449.983804	23.846000	-5.920000
	265.600192	1449.982539	23.860000	-5.910000
	265.700197	1449.982539	23.848000	-5.900000
	265.800203	1449.985070	23.870000	-5.880000
	265.913209	1449.985070	23.848000	-5.900000
	266.000215	1449.985070	23.848000	-5.900000
	266.100220	1449.976213	23.838000	-5.970000
	266.200226	1449.976213	23.852000	-5.900000
	266.300231	1449.969886	23.844000	-5.950000
	266.400238	1449.964825	23.856000	-5.940000
	266.500243	1449.963559	23.864000	-5.910000
	266.600249	1449.964825	23.846000	-5.890000
	266.701255	1449.957233	23.864000	-5.960000
	266.800260	1449.949641	23.872000	-5.960000
	266.900266	1449.943315	23.904000	-5.950000
	267.000272	1449.942049	23.880000	-5.910000
	267.100277	1449.936988	23.892000	-5.940000
	267.200283	1449.934458	23.894000	-5.920000
	267.304289	1449.934458	23.874000	-5.900000
	267.400295	1449.939519	23.866000	-5.860000
	267.500300	1449.949642	23.846000	-5.820000
	267.600306	1449.949642	23.846000	-5.820000
	267.700312	1449.962296	23.858000	-5.800000
	267.800317	1449.961030	23.866000	-5.910000
	267.910324	1449.966092	23.846000	-5.860000
	268.000329	1449.966092	23.852000	-5.900000
	268.113335	1449.955969	23.830000	-5.980000
	268.200340	1449.958500	23.838000	-5.880000
	268.300346	1449.955969	23.856000	-5.920000
	268.400352	1449.954704	23.852000	-5.910000
	268.507358	1449.945847	23.880000	-5.970000
	268.600363	1449.935725	23.876000	-5.980000
	268.700369	1449.929398	23.894000	-5.950000
	268.800375	1449.921807	23.862000	-5.960000
	268.900380	1449.938257	24.142000	-5.770000
	269.009387	1449.938257	23.864000	-5.900000
	269.100392	1449.938257	23.864000	-5.900000
	269.200397	1449.916748	23.894000	-6.070000
	269.300403	1449.719448	24.228000	-7.460000
	269.400409	1449.748549	23.818000	-5.670000
	269.501415	1449.780181	23.832000	-5.650000
	269.600420	1449.735906	23.860000	-6.250000
	269.700426	1449.770069	23.886000	-5.630000
	269.800432	1449.783987	23.998000	-5.790000
	269.900437	1449.776396	24.044000	-5.960000
	270.000443	1449.756154	24.074000	-6.060000
	270.100449	1449.733383	24.158000	-6.080000
	270.200455	1449.685316	24.194000	-6.280000
	270.300460	1449.685316	24.194000	-6.280000
	270.400466	1449.630926	24.378000	-6.330000
	270.500472	1449.600568	25.076000	-6.140000
	270.600478	1449.553769	24.398000	-6.270000
	270.700483	1449.522148	24.406000	-6.150000
	270.800489	1449.498116	24.382000	-6.090000
	270.900495	1449.479144	24.386000	-6.050000
	271.000501	1449.451318	24.382000	-6.120000
	271.100506	1449.428552	24.374000	-6.080000
	271.201512	1449.417169	24.408000	-5.990000
	271.300518	1449.407050	24.402000	-5.980000
	271.400523	1449.399461	24.412000	-5.960000
	271.500529	1449.391872	24.408000	-5.960000
	271.600535	1449.389343	24.428000	-5.920000
	271.700541	1449.394402	24.380000	-5.860000
	271.800546	1449.389343	24.370000	-5.940000
	271.900552	1449.389343	24.370000	-5.940000
	272.000558	1449.381754	24.376000	-5.960000
	272.109564	1449.365312	24.374000	-6.030000
	272.200569	1449.353929	24.390000	-5.990000
	272.300575	1449.348870	24.418000	-5.940000
	272.400580	1449.352665	24.420000	-5.870000
	272.500587	1449.358989	24.418000	-5.850000
	272.600592	1449.367843	24.402000	-5.830000
	272.700598	1449.370372	24.348000	-5.880000
	272.800603	1449.374167	24.372000	-5.870000
	272.900609	1449.370372	24.380000	-5.930000
	273.000615	1449.360254	24.374000	-5.980000
	273.100621	1449.357725	24.410000	-5.920000
	273.200626	1449.362784	24.400000	-5.860000
	273.304632	1449.362784	24.400000	-5.860000
	273.400638	1449.369108	24.384000	-5.850000
	273.500644	1449.383022	24.382000	-5.790000
	273.600649	1449.384287	24.382000	-5.890000
	273.700655	1449.380492	24.374000	-5.930000
	273.816661	1449.381757	24.340000	-5.890000
	273.900666	1449.375433	24.386000	-5.950000
	274.000672	1449.379228	24.408000	-5.870000
	274.102678	1449.386817	24.402000	-5.840000
	274.200684	1449.399466	24.398000	-5.800000
	274.300689	1449.401995	24.346000	-5.880000
	274.400695	1449.394406	24.346000	-5.960000
	274.500701	1449.389347	24.372000	-5.940000
	274.600707	1449.381758	24.396000	-5.960000
	274.700712	1449.379229	24.406000	-5.920000
	274.800718	1449.386818	24.406000	-5.840000
	274.900723	1449.386818	24.406000	-5.840000
	275.000730	1449.395672	24.388000	-5.830000
	275.100735	1449.403261	24.388000	-5.840000
	275.200741	1449.399467	24.356000	-5.930000
	275.300746	1449.396937	24.364000	-5.920000
	275.403752	1449.395672	24.370000	-5.910000
	275.499758	1449.396937	24.382000	-5.890000
	275.599763	1449.398202	24.410000	-5.890000
	275.699769	1449.404526	24.390000	-5.850000
	275.799775	1449.413380	24.370000	-5.830000
	275.899781	1449.412116	24.376000	-5.910000
	275.999786	1449.403262	24.358000	-5.970000
	276.099792	1449.393143	24.376000	-5.980000
	276.199798	1449.386819	24.392000	-5.950000
	276.299804	1449.386819	24.406000	-5.900000
	276.399809	1449.386819	24.406000	-5.900000
	276.499815	1449.400733	24.398000	-5.790000
	276.599821	1449.409587	24.354000	-5.830000
	276.699826	1449.410852	24.356000	-5.890000
	276.799832	1449.403263	24.372000	-5.960000
	276.899838	1449.399469	24.390000	-5.930000
	276.999844	1449.395674	24.408000	-5.930000
	277.099849	1449.395674	24.414000	-5.900000
	277.199855	1449.405793	24.392000	-5.820000
	277.299861	1449.414648	24.372000	-5.830000
	277.399867	1449.410853	24.354000	-5.930000
	277.499872	1449.408323	24.362000	-5.920000
	277.608879	1449.399470	24.386000	-5.970000
	277.699883	1449.400735	24.402000	-5.890000
	277.799890	1449.400735	24.402000	-5.890000
	277.899895	1449.404529	24.402000	-5.870000
	277.999901	1449.415913	24.390000	-5.810000
	278.099906	1449.420973	24.330000	-5.860000
	278.199912	1449.418443	24.364000	-5.920000
	278.299918	1449.410854	24.364000	-5.960000
	278.399924	1449.403265	24.404000	-5.960000
	278.499929	1449.409590	24.406000	-5.850000
	278.599935	1449.418444	24.394000	-5.830000
	278.699941	1449.424768	24.358000	-5.850000
	278.799947	1449.423503	24.362000	-5.910000
	278.899952	1449.414650	24.352000	-5.970000
	278.999958	1449.410855	24.380000	-5.930000
	279.099964	1449.417179	24.416000	-5.850000
	279.207970	1449.431094	24.368000	-5.790000
	279.303976	1449.437418	24.400000	-5.850000
	279.399981	1449.437418	24.342000	-5.900000
	279.499987	1449.437418	24.342000	-5.900000
	279.599992	1449.431094	24.366000	-5.950000
	279.701998	1449.424770	24.362000	-5.950000
	279.800004	1449.420975	24.390000	-5.930000
	279.900010	1449.419710	24.412000	-5.910000
	280.000015	1449.424770	24.396000	-5.860000
	280.100021	1449.433624	24.378000	-5.830000
	280.200027	1449.442478	24.346000	-5.830000
	280.300033	1449.438684	24.320000	-5.930000
	280.400038	1449.431095	24.358000	-5.960000
	280.500044	1449.429830	24.402000	-5.910000
	280.600049	1449.431095	24.396000	-5.890000
	280.700055	1449.431095	24.362000	-5.900000
	280.800061	1449.438684	24.342000	-5.840000
	280.900067	1449.433625	24.342000	-5.940000
	281.007073	1449.433625	24.342000	-5.940000
	281.100078	1449.431095	24.346000	-5.920000
	281.200084	1449.429830	24.382000	-5.910000
	281.300090	1449.432360	24.402000	-5.880000
	281.400095	1449.434890	24.388000	-5.880000
	281.500101	1449.438684	24.370000	-5.870000
	281.600107	1449.441214	24.344000	-5.880000
	281.700112	1449.438684	24.364000	-5.920000
	281.800118	1449.427301	24.366000	-5.990000
	281.900124	1449.422242	24.378000	-5.940000
	282.000130	1449.432361	24.406000	-5.820000
	282.100135	1449.446275	24.370000	-5.790000
	282.200141	1449.447540	24.360000	-5.890000
	282.300147	1449.445010	24.336000	-5.920000
	282.400153	1449.445010	24.336000	-5.920000
	282.500158	1449.439951	24.370000	-5.940000
	282.600164	1449.433627	24.384000	-5.950000
	282.700170	1449.432362	24.406000	-5.910000
	282.800176	1449.438686	24.390000	-5.850000
	282.900181	1449.445011	24.346000	-5.850000
	283.000187	1449.447540	24.336000	-5.880000
	283.100193	1449.439951	24.362000	-5.960000
	283.200198	1449.431098	24.374000	-5.970000
	283.300204	1449.438687	24.378000	-5.840000
	283.400210	1449.442482	24.398000	-5.870000
	283.500216	1449.450071	24.366000	-5.840000
	283.600221	1449.451336	24.364000	-5.890000
	283.700227	1449.443747	24.358000	-5.960000
	283.800233	1449.442482	24.366000	-5.910000
	283.909239	1449.442482	24.366000	-5.910000
	284.000244	1449.438687	24.394000	-5.930000
	284.100250	1449.441217	24.404000	-5.880000
	284.201256	1449.451337	24.374000	-5.820000
	284.300261	1449.455131	24.378000	-5.870000
	284.402267	1449.456396	24.370000	-5.890000
	284.501273	1449.448807	24.350000	-5.960000
	284.604279	1449.446277	24.386000	-5.920000
	284.712285	1449.442483	24.404000	-5.930000
	284.800290	1449.451337	24.382000	-5.830000
	284.900296	1449.460192	24.362000	-5.830000
	285.000301	1449.457662	24.346000	-5.920000
	285.100307	1449.448808	24.370000	-5.970000
	285.200313	1449.441219	24.378000	-5.960000
	285.300318	1449.443748	24.412000	-5.880000
	285.402324	1449.447543	24.392000	-5.870000
	285.500330	1449.447543	24.392000	-5.870000
	285.600336	1449.451338	24.370000	-5.870000
	285.700341	1449.450073	24.344000	-5.910000
	285.800347	1449.448808	24.342000	-5.910000
	285.900353	1449.439954	24.352000	-5.970000
	286.000359	1449.439954	24.404000	-5.900000
	286.100364	1449.443749	24.388000	-5.870000
	286.200370	1449.451338	24.364000	-5.840000
	286.300375	1449.457663	24.346000	-5.850000
	286.400382	1449.460193	24.356000	-5.880000
	286.500387	1449.453868	24.348000	-5.950000
	286.600393	1449.442485	24.384000	-5.990000
	286.700398	1449.441220	24.406000	-5.910000
	286.800404	1449.445015	24.382000	-5.870000
	286.900410	1449.451339	24.354000	-5.850000
	287.000416	1449.451339	24.354000	-5.850000
	287.100421	1449.455134	24.354000	-5.870000
	287.200427	1449.447545	24.366000	-5.960000
	287.301433	1449.441220	24.378000	-5.950000
	287.400439	1449.434896	24.390000	-5.950000
	287.500444	1449.439956	24.400000	-5.860000
	287.600450	1449.446280	24.374000	-5.850000
	287.700456	1449.456400	24.390000	-5.820000
	287.800461	1449.457665	24.366000	-5.890000
	287.900467	1449.452605	24.360000	-5.940000
	288.000473	1449.447546	24.364000	-5.940000
	288.100479	1449.442486	24.386000	-5.940000
	288.200484	1449.448811	24.390000	-5.850000
	288.300490	1449.455135	24.370000	-5.850000
	288.400496	1449.455135	24.370000	-5.850000
	288.500502	1449.470315	24.386000	-5.780000
	288.600507	1449.481699	24.358000	-5.810000
	288.700513	1449.479170	24.336000	-5.920000
	288.800519	1449.472845	24.332000	-5.950000
	288.900524	1449.461461	24.356000	-5.990000
	289.000530	1449.460197	24.390000	-5.910000
	289.112536	1449.460197	24.388000	-5.900000
	289.200541	1449.471581	24.378000	-5.810000
	289.300547	1449.479171	24.374000	-5.840000
	289.400553	1449.481701	24.352000	-5.880000
	289.500559	1449.476641	24.348000	-5.940000
	289.600564	1449.470317	24.378000	-5.950000
	289.700570	1449.466522	24.360000	-5.930000
	289.800576	1449.466522	24.360000	-5.930000
	289.900581	1449.462727	24.390000	-5.930000
	290.000587	1449.466522	24.372000	-5.870000
	290.100593	1449.476642	24.380000	-5.820000
	290.200599	1449.472847	24.340000	-5.930000
	290.300604	1449.469052	24.336000	-5.930000
	290.400610	1449.460198	24.366000	-5.970000
	290.500616	1449.453874	24.386000	-5.950000
	290.600622	1449.463993	24.398000	-5.820000
	290.700627	1449.462728	24.388000	-5.910000
	290.800633	1449.467788	24.348000	-5.860000
	290.900639	1449.467788	24.344000	-5.900000
	291.000645	1449.469053	24.352000	-5.890000
	291.100650	1449.461464	24.358000	-5.960000
	291.200656	1449.461464	24.358000	-5.960000
	291.300662	1449.448815	24.372000	-6.000000
	291.400667	1449.447550	24.372000	-5.910000
	291.500673	1449.460200	24.374000	-5.800000
	291.600679	1449.470319	24.344000	-5.820000
	291.700685	1449.475379	24.364000	-5.860000
	291.800690	1449.470320	24.352000	-5.940000
	291.900696	1449.457671	24.360000	-6.000000
	292.000702	1449.448817	24.360000	-5.970000
	292.100708	1449.446287	24.394000	-5.920000
	292.200713	1449.456407	24.386000	-5.820000
	292.300719	1449.465261	24.402000	-5.830000
	292.400724	1449.465261	24.402000	-5.830000
	292.500730	1449.465261	24.360000	-5.900000
	292.600736	1449.472851	24.350000	-5.840000
	292.700742	1449.474116	24.354000	-5.890000
	292.800747	1449.467791	24.352000	-5.950000
	292.899753	1449.469056	24.392000	-5.890000
	292.999759	1449.467791	24.404000	-5.910000
	293.099764	1449.470321	24.384000	-5.880000
	293.199770	1449.471586	24.344000	-5.890000
	293.299776	1449.477911	24.360000	-5.850000
	293.399782	1449.476646	24.350000	-5.910000
	293.499787	1449.469057	24.364000	-5.960000
	293.599793	1449.470322	24.390000	-5.890000
	293.699799	1449.475381	24.366000	-5.860000
	293.799805	1449.477911	24.380000	-5.880000
	293.899810	1449.481706	24.368000	-5.870000
	293.999816	1449.481706	24.368000	-5.870000
	294.099822	1449.480441	24.328000	-5.910000
	294.199828	1449.471587	24.352000	-5.970000
	294.299833	1449.465262	24.384000	-5.950000
	294.399839	1449.471587	24.404000	-5.850000
	294.499845	1449.474117	24.376000	-5.880000
	294.599850	1449.481706	24.356000	-5.840000
	294.699856	1449.488031	24.354000	-5.850000
	294.799862	1449.486766	24.370000	-5.910000
	294.902868	1449.484236	24.338000	-5.920000
	294.999873	1449.476647	24.328000	-5.960000
	295.099879	1449.471588	24.360000	-5.940000
	295.199885	1449.472853	24.392000	-5.890000
	295.299891	1449.472853	24.392000	-5.890000
	295.399896	1449.474117	24.390000	-5.890000
	295.499902	1449.481707	24.386000	-5.840000
	295.599907	1449.488032	24.370000	-5.850000
	295.699914	1449.491827	24.334000	-5.870000
	295.799919	1449.489297	24.350000	-5.920000
	295.899925	1449.480443	24.356000	-5.970000
	295.999930	1449.475383	24.394000	-5.940000
	296.099936	1449.475383	24.376000	-5.900000
	296.199942	1449.486768	24.394000	-5.810000
	296.299948	1449.486768	24.384000	-5.900000
	296.399953	1449.493092	24.348000	-5.850000
	296.499959	1449.490563	24.352000	-5.920000
	296.599965	1449.481708	24.372000	-5.970000
	296.699970	1449.472854	24.358000	-5.970000
	296.799976	1449.467795	24.382000	-5.940000
	296.899982	1449.467795	24.382000	-5.940000
	296.999988	1449.465265	24.376000	-5.920000
	297.099993	1449.470325	24.392000	-5.860000
	297.199999	1449.479179	24.396000	-5.830000
	297.300005	1449.480444	24.346000	-5.890000
	297.400011	1449.480444	24.342000	-5.900000
	297.500016	1449.482974	24.336000	-5.880000
	297.600022	1449.482974	24.342000	-5.900000
	297.700027	1449.475385	24.378000	-5.960000
	297.800034	1449.469060	24.378000	-5.950000
	297.900039	1449.472855	24.376000	-5.870000
	298.000045	1449.482975	24.380000	-5.820000
	298.100050	1449.486769	24.380000	-5.870000
	298.200056	1449.493094	24.360000	-5.850000
	298.300062	1449.493094	24.360000	-5.850000
	298.400068	1449.501949	24.368000	-5.830000
	298.500073	1449.495624	24.330000	-5.950000
	298.600079	1449.494359	24.316000	-5.910000
	298.700085	1449.485505	24.372000	-5.970000
	298.800091	1449.470327	24.390000	-6.020000
	298.900096	1449.465268	24.374000	-5.940000
	299.000102	1449.467797	24.380000	-5.880000
	299.100108	1449.467797	24.378000	-5.900000
	299.200113	1449.472857	24.372000	-5.860000
	299.300119	1449.479182	24.348000	-5.850000
	299.400125	1449.479182	24.330000	-5.900000
	299.500131	1449.482976	24.320000	-5.870000
	299.600136	1449.480447	24.362000	-5.920000
	299.700142	1449.475387	24.368000	-5.940000
	299.800148	1449.475387	24.368000	-5.940000
	299.900154	1449.470328	24.372000	-5.940000
	300.000159	1449.466533	24.386000	-5.930000
	300.100165	1449.469063	24.388000	-5.880000
	300.200171	1449.477917	24.398000	-5.830000
	300.300176	1449.484242	24.360000	-5.850000
	300.400182	1449.490567	24.324000	-5.850000
	300.500188	1449.489302	24.366000	-5.910000
	300.600194	1449.485507	24.330000	-5.930000
	300.700199	1449.476653	24.362000	-5.970000
	300.800205	1449.475388	24.362000	-5.910000
	300.900211	1449.466534	24.366000	-5.970000
	301.000216	1449.469064	24.374000	-5.880000
	301.100222	1449.472859	24.366000	-5.870000
	301.200228	1449.472859	24.378000	-5.900000
	301.300233	1449.484243	24.358000	-5.810000
	301.400239	1449.484243	24.358000	-5.810000
	301.500245	1449.490568	24.370000	-5.850000
	301.600251	1449.494363	24.354000	-5.870000
	301.700256	1449.499422	24.332000	-5.860000
	301.800262	1449.501952	24.352000	-5.880000
	301.900268	1449.501952	24.344000	-5.900000
	302.000274	1449.496893	24.332000	-5.940000
	302.100279	1449.489303	24.368000	-5.960000
	302.200285	1449.484244	24.378000	-5.940000
	302.300291	1449.477919	24.372000	-5.950000
	302.400297	1449.479184	24.374000	-5.890000
	302.500302	1449.477919	24.366000	-5.910000
	302.600308	1449.477919	24.372000	-5.900000
	302.700314	1449.485509	24.370000	-5.840000
	302.800319	1449.493099	24.358000	-5.840000
	302.900325	1449.493099	24.358000	-5.840000
	303.000331	1449.499423	24.342000	-5.850000
	303.100337	1449.512073	24.346000	-5.800000
	303.200342	1449.508279	24.334000	-5.930000
	303.300348	1449.504484	24.350000	-5.930000
	303.400353	1449.503219	24.360000	-5.910000
	303.500360	1449.493100	24.358000	-5.980000
	303.600365	1449.484246	24.352000	-5.970000
	303.700371	1449.481716	24.386000	-5.920000
	303.800376	1449.481716	24.370000	-5.900000
	303.900382	1449.477921	24.366000	-5.930000
	304.000388	1449.472862	24.398000	-5.940000
	304.100394	1449.471597	24.376000	-5.910000
	304.200399	1449.475391	24.376000	-5.870000
	304.300405	1449.475391	24.376000	-5.870000
	304.400411	1449.479186	24.374000	-5.870000
	304.500417	1449.485511	24.382000	-5.850000
	304.600422	1449.490571	24.368000	-5.860000
	304.700428	1449.494365	24.358000	-5.870000
	304.800434	1449.499425	24.348000	-5.860000
	304.900439	1449.496895	24.352000	-5.920000
	305.000445	1449.505750	24.354000	-5.830000
	305.100451	1449.507015	24.336000	-5.890000
	305.200457	1449.503220	24.340000	-5.930000
	305.300462	1449.495631	24.350000	-5.960000
	305.400468	1449.489306	24.380000	-5.950000
	305.500474	1449.480452	24.366000	-5.970000
	305.600480	1449.480452	24.376000	-5.900000
	305.700485	1449.480452	24.376000	-5.900000
	305.800491	1449.469068	24.366000	-5.990000
	305.900496	1449.472863	24.374000	-5.870000
	306.000503	1449.477923	24.384000	-5.860000
	306.100508	1449.472863	24.386000	-5.940000
	306.200514	1449.476658	24.392000	-5.870000
	306.300519	1449.485513	24.370000	-5.830000
