LabVIEW Measurement	
Writer_Version	2
Reader_Version	2
Separator	Tab
Decimal_Separator	.
Multi_Headings	No
X_Columns	No
Time_Pref	Relative
Operator	Herve
Date	2023/06/09
Time	15:03:33.6486692428588867187
***End_of_Header***	
	
Channels	4				
Samples	3215	3215	3215	3215	
Date	1904/01/01	1904/01/01	1904/01/01	1904/01/01	
Time	09:00:00	09:00:00	09:00:00	09:00:00	
Y_Unit_Label	s	Hz	mV	°	
X_Dimension	Time	Time	Time	Time	
X0	0.0000000000000000E+0	0.0000000000000000E+0	0.0000000000000000E+0	0.0000000000000000E+0	
Delta_X	1.000000	1.000000	1.000000	1.000000	
***End_of_Header***					
X_Value	Time	Res.Frequency	Amplitude	Phase	Comment
	0.049003	1442.982286	23.580000	-6.500000
	0.149009	1442.977249	23.678000	-6.640000
	0.249014	1442.967175	23.590000	-6.680000
	0.349020	1442.970953	23.610000	-6.570000
	0.499029	1442.964657	23.560000	-6.650000
	0.599034	1442.968435	23.538000	-6.570000
	0.699040	1442.968435	23.606000	-6.600000
	0.799046	1442.962139	23.616000	-6.650000
	0.949054	1442.975991	23.636000	-6.490000
	1.049060	1442.970954	23.604000	-6.640000
	1.149066	1442.968435	23.542000	-6.620000
	1.249072	1442.977250	23.538000	-6.530000
	1.399080	1442.973473	23.554000	-6.630000
	1.499086	1442.979769	23.580000	-6.550000
	1.599092	1442.977251	23.692000	-6.620000
	1.710098	1442.969695	23.600000	-6.660000
	1.849106	1442.977251	23.572000	-6.540000
	1.950112	1442.977251	23.572000	-6.540000
	2.049118	1442.968437	23.612000	-6.670000
	2.149123	1442.969696	23.602000	-6.590000
	2.249129	1442.993623	23.550000	-6.410000
	2.349134	1442.987327	23.598000	-6.650000
	2.449140	1442.992364	23.538000	-6.560000
	2.549146	1442.998661	23.608000	-6.550000
	2.649152	1442.982291	23.550000	-6.730000
	2.749157	1442.986069	23.554000	-6.570000
	2.849163	1442.987328	23.644000	-6.590000
	2.949169	1442.968441	23.614000	-6.750000
	3.049175	1442.973478	23.622000	-6.560000
	3.155180	1442.967182	23.636000	-6.650000
	3.249186	1442.962145	23.574000	-6.640000
	3.349192	1442.970960	23.552000	-6.530000
	3.449197	1442.959627	23.650000	-6.690000
	3.549203	1442.963405	23.590000	-6.570000
	3.649209	1442.963405	23.590000	-6.570000
	3.749215	1442.972220	23.716000	-6.530000
	3.849220	1442.957110	23.682000	-6.720000
	3.949226	1442.957110	23.670000	-6.600000
	4.049232	1442.963406	23.656000	-6.550000
	4.149238	1442.953332	23.598000	-6.680000
	4.249243	1442.962147	23.660000	-6.530000
	4.349249	1442.968443	23.692000	-6.550000
	4.449255	1442.960888	23.652000	-6.660000
	4.549260	1442.973481	23.610000	-6.500000
	4.649266	1442.978518	23.644000	-6.560000
	4.749272	1442.978518	23.600000	-6.600000
	4.855278	1442.986074	23.604000	-6.540000
	4.949283	1442.973482	23.700000	-6.700000
	5.049289	1442.977259	23.638000	-6.570000
	5.149295	1442.982296	23.676000	-6.560000
	5.249300	1442.978519	23.610000	-6.630000
	5.349306	1442.978519	23.610000	-6.630000
	5.449312	1442.982297	23.642000	-6.570000
	5.549317	1442.986074	23.696000	-6.570000
	5.651323	1442.982297	23.658000	-6.630000
	5.749329	1442.989852	23.680000	-6.540000
	5.849335	1442.978520	23.678000	-6.690000
	5.949340	1442.976001	23.626000	-6.620000
	6.049346	1442.982297	23.602000	-6.550000
	6.149352	1442.970965	23.606000	-6.690000
	6.249358	1442.978520	23.630000	-6.540000
	6.349363	1442.981039	23.702000	-6.580000
	6.449369	1442.969706	23.674000	-6.690000
	6.555375	1443.137311	24.664000	-5.270000
	6.649381	1443.123458	23.792000	-6.710000
	6.749386	1443.097014	23.762000	-6.810000
	6.849392	1442.925813	24.266000	-7.960000
	6.949398	1442.958556	23.726000	-6.340000
	7.049403	1443.000117	23.698000	-6.270000
	7.149409	1443.000117	23.698000	-6.270000
	7.249415	1442.963603	24.032000	-6.890000
	7.349421	1442.920795	23.654000	-6.940000
	7.449426	1442.962355	23.682000	-6.270000
	7.549432	1443.082041	24.014000	-5.650000
	7.649437	1442.932238	23.622000	-7.790000
	7.753444	1443.295649	25.204000	-3.720000
	7.849449	1443.207506	23.712000	-7.300000
	7.949455	1443.099227	24.106000	-7.460000
	8.050461	1443.052638	23.654000	-6.970000
	8.149466	1443.026195	23.658000	-6.810000
	8.249472	1443.065238	23.860000	-6.290000
	8.349478	1443.018650	23.458000	-6.970000
	8.449483	1443.055174	23.646000	-6.310000
	8.549489	1443.021177	23.714000	-6.870000
	8.649495	1442.968296	23.218000	-7.020000
	8.749501	1442.982148	23.864000	-6.490000
	8.849506	1442.980889	23.502000	-6.610000
	8.949512	1442.946893	23.620000	-6.870000
	9.099521	1442.934302	23.696000	-6.700000
	9.199526	1442.945635	23.540000	-6.510000
	9.299532	1442.958228	23.678000	-6.500000
	9.399538	1442.951932	23.640000	-6.650000
	9.499544	1442.967043	23.728000	-6.480000
	9.599549	1442.979636	23.698000	-6.500000
	9.749558	1442.977117	23.646000	-6.620000
	9.849564	1442.980895	23.638000	-6.570000
	9.949569	1442.989710	23.626000	-6.530000
	10.049575	1442.997266	23.606000	-6.540000
	10.149580	1443.009859	23.126000	-6.500000
	10.249587	1442.998526	23.604000	-6.690000
	10.349592	1442.998526	23.604000	-6.690000
	10.449598	1442.994748	23.678000	-6.630000
	10.549603	1442.973342	23.640000	-6.770000
	10.649609	1442.980898	23.624000	-6.540000
	10.749615	1442.973343	23.650000	-6.660000
	10.849621	1442.973343	23.702000	-6.600000
	10.949626	1443.111942	23.832000	-5.500000
	11.049632	1443.060317	23.498000	-7.010000
	11.149638	1443.062835	23.592000	-6.580000
	11.249643	1443.048984	23.860000	-6.710000
	11.353650	1442.950786	23.430000	-7.380000
	11.449655	1442.959600	23.768000	-6.530000
	11.549661	1442.967156	23.770000	-6.540000
	11.649666	1442.978489	23.616000	-6.510000
	11.749672	1442.981008	23.638000	-6.580000
	11.849678	1442.968416	23.462000	-6.700000
	11.949684	1442.963379	23.656000	-6.640000
	12.049689	1442.963379	23.656000	-6.640000
	12.149695	1442.953306	23.642000	-6.680000
	12.249701	1442.970936	23.610000	-6.460000
	12.349707	1442.969677	23.656000	-6.610000
	12.449712	1442.964640	23.624000	-6.640000
	12.549718	1442.962121	23.926000	-6.620000
	12.649724	1442.957085	23.742000	-6.640000
	12.751729	1442.969677	23.694000	-6.500000
	12.849735	1442.965900	23.750000	-6.630000
	12.949741	1442.965900	23.740000	-6.600000
	13.049747	1442.974715	23.720000	-6.530000
	13.149752	1442.964641	23.794000	-6.680000
	13.250758	1442.975975	23.780000	-6.510000
	13.349764	1442.970938	23.840000	-6.640000
	13.449769	1442.978493	23.684000	-6.540000
	13.549775	1442.981012	23.934000	-6.580000
	13.699784	1442.973457	23.888000	-6.660000
	13.799789	1442.983531	23.880000	-6.520000
	13.899795	1442.978494	23.908000	-6.640000
	13.999801	1442.975975	23.714000	-6.620000
	14.099807	1442.975975	23.714000	-6.620000
	14.199812	1442.984790	23.748000	-6.530000
	14.299818	1442.978494	23.712000	-6.650000
	14.399824	1442.983531	23.742000	-6.560000
	14.504830	1442.968421	23.788000	-6.720000
	14.606836	1442.979755	23.772000	-6.510000
	14.699841	1442.970940	23.806000	-6.670000
	14.798847	1442.970940	23.760000	-6.600000
	14.898852	1442.978496	23.884000	-6.540000
	15.004858	1442.969682	23.930000	-6.670000
	15.098864	1442.975978	23.896000	-6.550000
	15.198869	1442.965904	23.854000	-6.680000
	15.298875	1442.968423	23.844000	-6.580000
	15.398881	1442.969682	23.966000	-6.590000
	15.498887	1442.964645	23.904000	-6.640000
	15.598892	1442.972201	23.892000	-6.540000
	15.698898	1442.969682	23.890000	-6.620000
	15.848907	1442.977238	23.808000	-6.540000
	15.948912	1442.977238	23.868000	-6.600000
	16.048918	1442.972201	23.822000	-6.640000
	16.153924	1442.981016	23.866000	-6.530000
	16.248930	1442.967165	23.874000	-6.710000
	16.348935	1442.983536	23.922000	-6.470000
	16.448941	1442.972203	23.912000	-6.690000
	16.598949	1442.972203	23.912000	-6.690000
	16.698955	1442.977240	23.852000	-6.560000
	16.798961	1442.975981	23.878000	-6.610000
	16.898967	1442.967166	23.844000	-6.670000
	16.998972	1442.974722	23.896000	-6.540000
	17.098978	1442.964649	23.864000	-6.680000
	17.198984	1442.993614	24.130000	-6.370000
	17.298990	1442.984799	23.684000	-6.670000
	17.398995	1442.977244	23.538000	-6.660000
	17.499001	1442.986059	23.614000	-6.530000
	17.602007	1442.970949	23.626000	-6.720000
	17.699012	1442.975986	23.612000	-6.560000
	17.799018	1442.968431	23.630000	-6.660000
	17.899024	1442.964653	23.584000	-6.630000
	17.999030	1442.963394	23.638000	-6.610000
	18.104036	1442.958357	23.646000	-6.640000
	18.199041	1442.967172	23.610000	-6.530000
	18.299047	1442.962135	23.650000	-6.640000
	18.399053	1442.962135	23.650000	-6.640000
	18.499058	1442.957098	23.616000	-6.640000
	18.599064	1442.963394	23.650000	-6.550000
	18.699069	1442.957098	23.596000	-6.650000
	18.799075	1442.962135	23.582000	-6.560000
	18.900081	1442.962135	23.606000	-6.600000
	18.999087	1442.953321	23.562000	-6.670000
	19.099092	1442.960876	23.602000	-6.540000
	19.199098	1442.954581	23.616000	-6.650000
	19.299104	1442.955840	23.564000	-6.590000
	19.399110	1442.962136	23.672000	-6.550000
	19.503116	1442.954581	23.628000	-6.660000
	19.599121	1442.963396	23.620000	-6.530000
	19.699127	1442.957100	23.618000	-6.650000
	19.799132	1442.957100	23.466000	-6.600000
	19.899138	1442.965914	23.646000	-6.530000
	19.999144	1442.958359	23.670000	-6.660000
	20.110150	1442.959618	23.630000	-6.590000
	20.199155	1442.960878	23.638000	-6.590000
	20.299161	1442.944509	23.532000	-6.730000
	20.449170	1442.944509	23.532000	-6.730000
	20.549175	1442.955842	23.462000	-6.510000
	20.649181	1442.954583	23.564000	-6.610000
	20.749187	1442.957101	23.502000	-6.580000
	20.849193	1442.958361	23.596000	-6.590000
	20.949198	1442.944510	23.486000	-6.710000
	21.049204	1442.954584	23.488000	-6.520000
	21.149210	1442.957102	23.618000	-6.580000
	21.249216	1442.950806	23.618000	-6.650000
	21.349221	1442.953325	23.626000	-6.580000
	21.449227	1442.945770	23.506000	-6.660000
	21.549232	1442.952066	23.508000	-6.550000
	21.649239	1442.953325	23.666000	-6.590000
	21.749244	1442.949547	23.636000	-6.630000
	21.849250	1442.960881	23.644000	-6.510000
	21.952256	1442.955844	23.652000	-6.640000
	22.049261	1442.952066	23.636000	-6.630000
	22.149267	1442.952066	23.636000	-6.630000
	22.249273	1442.954585	23.632000	-6.580000
	22.349278	1442.944511	23.646000	-6.680000
	22.449284	1442.952067	23.572000	-6.540000
	22.549290	1442.953326	23.678000	-6.590000
	22.649296	1442.944512	23.622000	-6.670000
	22.753302	1442.945771	23.586000	-6.590000
	22.849307	1442.952067	23.688000	-6.550000
	22.949313	1442.941994	23.632000	-6.680000
	23.049318	1442.959624	23.674000	-6.460000
	23.149324	1442.957105	23.686000	-6.620000
	23.249330	1442.952069	23.616000	-6.640000
	23.349336	1442.963402	23.682000	-6.510000
	23.450341	1442.952069	23.672000	-6.690000
	23.549347	1442.957106	23.638000	-6.560000
	23.649353	1442.957106	23.680000	-6.600000
	23.759359	1442.947033	23.670000	-6.680000
	23.849364	1442.953329	23.640000	-6.550000
	23.949370	1442.953329	23.688000	-6.600000
	24.049376	1442.952070	23.566000	-6.610000
	24.149382	1442.957107	23.620000	-6.560000
	24.299390	1442.939479	23.614000	-6.740000
	24.399396	1442.943257	23.600000	-6.570000
	24.499402	1442.948294	23.616000	-6.560000
	24.599407	1442.948294	23.500000	-6.600000
	24.749416	1442.964664	23.480000	-6.470000
	24.849422	1442.963405	23.546000	-6.610000
	24.949427	1442.960887	23.456000	-6.620000
	25.049433	1442.977257	23.504000	-6.470000
	25.199441	1442.963406	23.498000	-6.710000
	25.299447	1442.974740	23.362000	-6.510000
	25.399453	1442.974740	23.412000	-6.600000
	25.499459	1442.977258	23.352000	-6.580000
	25.599464	1442.988592	23.400000	-6.510000
	25.749473	1442.977259	23.384000	-6.690000
	25.849479	1442.982296	23.346000	-6.560000
	25.952485	1442.977259	23.436000	-6.640000
	26.049490	1442.967186	23.372000	-6.680000
	26.199499	1442.976001	23.396000	-6.530000
	26.299504	1442.974741	23.426000	-6.610000
	26.399510	1442.976001	23.456000	-6.590000
	26.499516	1442.986075	23.458000	-6.520000
	26.649525	1442.973483	23.474000	-6.700000
	26.749530	1442.978520	23.432000	-6.560000
	26.849536	1442.974742	23.462000	-6.630000
	26.949542	1442.974742	23.462000	-6.630000
	27.049547	1442.972224	23.438000	-6.620000
	27.199556	1442.984817	23.476000	-6.500000
	27.299562	1442.977262	23.458000	-6.660000
	27.399567	1442.981039	23.412000	-6.570000
	27.499573	1442.981039	23.466000	-6.600000
	27.599579	1442.969707	23.460000	-6.690000
	27.699584	1442.974744	23.414000	-6.560000
	27.813591	1442.973484	23.414000	-6.610000
	27.899596	1442.974744	23.432000	-6.590000
	28.009602	1442.982299	23.472000	-6.540000
	28.099607	1442.979781	23.474000	-6.620000
	28.200613	1442.987336	23.420000	-6.540000
	28.299619	1442.989855	23.492000	-6.580000
	28.399624	1442.983559	23.446000	-6.650000
	28.549633	1442.989855	23.450000	-6.550000
	28.649639	1442.982300	23.480000	-6.660000
	28.749645	1442.979781	23.276000	-6.620000
	28.849650	1442.991115	23.262000	-6.510000
	29.001659	1442.982301	23.280000	-6.670000
	29.099665	1442.984819	23.364000	-6.580000
	29.199670	1442.974745	23.454000	-6.680000
	29.299676	1442.965931	23.376000	-6.670000
	29.399682	1442.972227	23.424000	-6.550000
	29.549690	1442.965931	23.560000	-6.650000
	29.649696	1442.962154	23.490000	-6.630000
	29.749702	1442.960894	23.538000	-6.610000
	29.849708	1442.950821	23.604000	-6.680000
	29.999716	1442.958377	23.416000	-6.540000
	30.099722	1442.959636	23.470000	-6.590000
	30.199728	1442.950821	23.478000	-6.670000
	30.299733	1442.957118	23.502000	-6.550000
	30.449742	1442.957118	23.502000	-6.550000
	30.549747	1442.952081	23.434000	-6.640000
	30.649753	1442.954599	23.376000	-6.580000
	30.749759	1442.970970	23.418000	-6.470000
	30.849765	1442.962156	23.444000	-6.670000
	30.949770	1442.969711	23.432000	-6.540000
	31.049776	1442.963415	23.490000	-6.650000
	31.149782	1442.952083	23.442000	-6.690000
	31.252788	1442.958379	23.448000	-6.550000
	31.299790	1442.954601	23.448000	-6.630000
	31.449799	1442.952083	23.418000	-6.620000
	31.549805	1442.963416	23.486000	-6.510000
	31.649810	1442.957120	23.630000	-6.650000
	31.749816	1442.963417	23.550000	-6.550000
	31.899825	1442.964676	23.554000	-6.590000
	31.999830	1442.960898	23.448000	-6.630000
	32.099836	1442.969713	23.460000	-6.530000
	32.199842	1442.960899	23.482000	-6.670000
	32.348850	1442.957121	23.430000	-6.630000
	32.448856	1442.965936	23.460000	-6.530000
	32.548862	1442.957121	23.512000	-6.670000
	32.648868	1442.953344	23.444000	-6.630000
	32.748873	1442.962159	23.620000	-6.530000
	32.898882	1442.950826	23.576000	-6.690000
	32.998888	1442.954604	23.554000	-6.570000
	33.098893	1442.950826	23.596000	-6.630000
	33.248902	1442.953345	23.568000	-6.580000
	33.348907	1442.952085	23.450000	-6.610000
	33.448914	1442.952085	23.430000	-6.600000
	33.548919	1442.959641	23.332000	-6.540000
	33.649925	1442.969715	23.432000	-6.520000
	33.798934	1442.960901	23.484000	-6.670000
	33.898939	1442.960901	23.484000	-6.670000
	33.998945	1442.967197	23.428000	-6.550000
	34.098950	1442.978530	23.460000	-6.510000
	34.198956	1442.968457	23.432000	-6.680000
	34.298962	1442.970975	23.442000	-6.580000
	34.398968	1442.974753	23.464000	-6.570000
	34.498973	1442.970975	23.510000	-6.630000
	34.598979	1442.976012	23.400000	-6.560000
	34.698985	1442.994902	23.494000	-6.450000
	34.798991	1442.987347	23.558000	-6.660000
	34.898996	1442.984828	23.454000	-6.620000
	34.999002	1442.997421	23.446000	-6.500000
	35.102008	1442.988607	23.552000	-6.670000
	35.199013	1442.989866	23.478000	-6.590000
	35.299019	1442.997422	23.560000	-6.540000
	35.399025	1442.991126	23.538000	-6.650000
	35.499031	1442.984830	23.438000	-6.650000
	35.599036	1442.984830	23.438000	-6.650000
	35.699042	1442.994904	23.536000	-6.520000
	35.799048	1442.992385	23.568000	-6.620000
	35.899054	1442.982312	23.576000	-6.680000
	35.999059	1442.987349	23.418000	-6.560000
	36.099065	1442.993645	23.508000	-6.550000
	36.199070	1442.986090	23.510000	-6.660000
	36.299077	1442.991127	23.442000	-6.560000
	36.399082	1443.001201	23.454000	-6.520000
	36.499088	1442.987350	23.466000	-6.710000
	36.600093	1442.993646	23.394000	-6.550000
	36.699099	1443.006240	23.690000	-6.500000
	36.799105	1442.988611	23.640000	-6.740000
	36.899111	1442.982315	23.654000	-6.650000
	36.999116	1442.993648	23.694000	-6.510000
	37.099122	1442.989871	23.586000	-6.630000
	37.199128	1442.986093	23.622000	-6.630000
	37.299134	1442.986093	23.622000	-6.630000
	37.399139	1442.991130	23.526000	-6.560000
	37.499145	1442.991130	23.602000	-6.600000
	37.599151	1442.977279	23.560000	-6.710000
	37.699156	1442.970983	23.502000	-6.650000
	37.799162	1442.978539	23.624000	-6.540000
	37.899168	1442.970983	23.634000	-6.660000
	37.999174	1442.965947	23.558000	-6.640000
	38.099179	1442.977280	23.542000	-6.510000
	38.199185	1442.972243	23.696000	-6.640000
	38.299191	1442.965947	23.582000	-6.650000
	38.407197	1442.967206	23.578000	-6.590000
	38.499202	1442.970984	23.558000	-6.570000
	38.599208	1442.972243	23.576000	-6.590000
	38.699214	1442.973503	23.608000	-6.590000
	38.799219	1442.974762	23.644000	-6.590000
	38.899225	1442.974762	23.644000	-6.590000
	38.999231	1442.968466	23.654000	-6.650000
	39.099236	1442.955874	23.620000	-6.700000
	39.199242	1442.964689	23.536000	-6.530000
	39.299248	1442.972244	23.660000	-6.540000
	39.399254	1442.974763	23.656000	-6.580000
	39.499259	1442.970985	23.618000	-6.630000
	39.599265	1442.974763	23.646000	-6.570000
	39.699271	1442.981059	23.672000	-6.550000
	39.799276	1442.970986	23.620000	-6.680000
	39.899282	1442.979801	23.676000	-6.530000
	40.006289	1442.982319	23.756000	-6.580000
	40.099294	1442.970986	23.714000	-6.690000
	40.199299	1442.962172	23.660000	-6.670000
	40.299305	1442.974765	23.752000	-6.500000
	40.399311	1442.977283	23.650000	-6.580000
	40.505317	1442.968469	23.738000	-6.670000
	40.599322	1442.968469	23.738000	-6.670000
	40.699328	1442.976024	23.722000	-6.540000
	40.799334	1442.979802	23.762000	-6.570000
	40.899340	1442.965951	23.708000	-6.710000
	40.999345	1442.972248	23.546000	-6.550000
	41.099351	1442.979803	23.732000	-6.540000
	41.199357	1442.976025	23.674000	-6.630000
	41.299362	1442.969729	23.646000	-6.650000
	41.399368	1442.978544	23.744000	-6.530000
	41.503374	1442.981063	23.810000	-6.580000
	41.599380	1442.976026	23.714000	-6.640000
	41.699385	1442.979804	23.718000	-6.570000
	41.799391	1442.986100	23.748000	-6.550000
	41.899396	1442.973508	23.756000	-6.700000
	41.999403	1442.970990	23.774000	-6.620000
	42.099408	1442.983583	23.784000	-6.500000
	42.199414	1442.977286	23.668000	-6.650000
	42.299419	1442.977286	23.668000	-6.650000
	42.399425	1442.969731	23.674000	-6.660000
	42.499431	1442.982324	23.644000	-6.500000
	42.599437	1442.977287	23.704000	-6.640000
	42.699442	1442.965955	23.708000	-6.690000
	42.799448	1442.970992	23.636000	-6.560000
	42.899454	1442.978547	23.696000	-6.540000
	42.999460	1442.965955	23.678000	-6.700000
	43.101465	1442.972252	23.688000	-6.550000
	43.199471	1442.986104	23.752000	-6.490000
	43.299477	1442.977289	23.736000	-6.670000
	43.399482	1442.965957	23.690000	-6.690000
	43.499488	1442.976031	23.680000	-6.520000
	43.599494	1442.979809	23.766000	-6.570000
	43.699500	1442.964698	23.680000	-6.720000
	43.799505	1442.969735	23.728000	-6.560000
	43.899511	1442.969735	23.742000	-6.600000
	43.999517	1442.965958	23.750000	-6.630000
	44.149525	1442.965958	23.750000	-6.630000
	44.249531	1442.960921	23.678000	-6.640000
	44.349537	1442.967217	23.736000	-6.550000
	44.449543	1442.959662	23.702000	-6.660000
	44.549548	1442.954625	23.720000	-6.640000
	44.649554	1442.962181	23.696000	-6.540000
	44.749560	1442.968477	23.726000	-6.550000
	44.849566	1442.960922	23.732000	-6.660000
	44.949571	1442.962181	23.648000	-6.590000
	45.049577	1442.965959	23.734000	-6.570000
	45.149582	1442.964700	23.758000	-6.610000
	45.249588	1442.964700	23.754000	-6.600000
	45.349594	1442.976033	23.734000	-6.510000
	45.449600	1442.962182	23.784000	-6.710000
	45.551606	1442.955886	23.692000	-6.650000
	45.649611	1442.970998	23.814000	-6.480000
	45.749617	1442.970998	23.814000	-6.480000
	45.849623	1442.973516	23.844000	-6.580000
	45.949628	1442.963443	23.812000	-6.680000
	46.049634	1442.973517	23.784000	-6.520000
	46.149640	1442.978554	23.826000	-6.560000
	46.249645	1442.968480	23.790000	-6.680000
	46.349651	1442.972258	23.738000	-6.570000
	46.449657	1442.976036	23.750000	-6.570000
	46.549663	1442.967221	23.782000	-6.670000
	46.649668	1442.960925	23.726000	-6.650000
	46.749674	1442.969740	23.750000	-6.530000
	46.853680	1442.964703	23.752000	-6.640000
	46.949686	1442.957148	23.686000	-6.660000
	47.049691	1442.965963	23.774000	-6.530000
	47.149697	1442.958408	23.828000	-6.660000
	47.249702	1442.955889	23.754000	-6.620000
	47.349709	1442.963445	23.782000	-6.540000
	47.449714	1442.960926	23.734000	-6.620000
	47.599723	1442.960926	23.734000	-6.620000
	47.699728	1442.953371	23.700000	-6.660000
	47.799734	1442.960927	23.772000	-6.540000
	47.899740	1442.962186	23.816000	-6.590000
	47.999745	1442.959668	23.726000	-6.620000
	48.099751	1442.963445	23.704000	-6.570000
	48.199757	1442.969742	23.768000	-6.550000
	48.299763	1442.950854	23.796000	-6.750000
	48.399768	1442.910565	23.810000	-6.920000
	48.499774	1443.182933	24.698000	-4.440000
	48.599780	1443.069621	23.792000	-7.500000
	48.699786	1443.152763	23.700000	-5.940000
	48.799791	1443.018056	24.094000	-7.670000
	48.901797	1442.942516	23.138000	-7.200000
	48.999803	1442.929925	23.782000	-6.700000
	49.099809	1442.995420	23.672000	-6.080000
	49.199814	1442.995420	23.602000	-6.600000
	49.299820	1442.979050	23.602000	-6.730000
	49.399826	1442.975273	23.700000	-6.630000
	49.549834	1442.980310	23.762000	-6.560000
	49.649840	1442.997940	23.754000	-6.460000
	49.748846	1442.688306	24.296000	-9.060000
	49.848851	1442.724821	23.786000	-6.310000
	49.998860	1443.057821	27.226000	-3.960000
	50.098866	1443.321373	24.212000	-4.510000
	50.198871	1443.210567	24.094000	-7.480000
	50.298877	1443.175307	23.736000	-6.880000
	50.448885	1443.124939	23.786000	-7.000000
	50.548892	1443.095976	23.622000	-6.830000
	50.648897	1443.073310	23.756000	-6.780000
	50.748903	1443.059458	23.682000	-6.710000
	50.848908	1442.883228	24.248000	-8.000000
	50.998917	1442.883228	24.248000	-8.000000
	51.098923	1442.909672	23.762000	-6.390000
	51.198928	1442.908413	23.778000	-6.610000
	51.298934	1442.919746	23.702000	-6.510000
	51.398940	1442.932339	23.728000	-6.500000
	51.498946	1442.917229	23.826000	-6.720000
	51.598951	1443.045736	23.734000	-5.580000
	51.699957	1443.050774	23.976000	-6.560000
	51.807963	1443.004186	23.784000	-6.970000
	51.898969	1443.007964	23.660000	-6.570000
	51.998974	1443.007964	23.660000	-6.570000
	52.098980	1443.013001	23.760000	-6.560000
	52.198986	1443.006705	23.770000	-6.650000
	52.298992	1443.019298	23.796000	-6.500000
	52.398997	1443.007965	23.816000	-6.690000
	52.499003	1442.997892	23.814000	-6.680000
	52.599009	1443.009225	23.794000	-6.510000
	52.699014	1443.021819	23.728000	-6.500000
	52.799020	1443.049525	23.576000	-6.380000
	52.899026	1443.035674	23.726000	-6.710000
	52.999032	1443.007972	23.744000	-6.820000
	53.099037	1442.989084	23.664000	-6.750000
	53.199043	1442.982788	23.720000	-6.650000
	53.305049	1443.108780	24.046000	-5.600000
	53.399055	1443.082336	23.726000	-6.810000
	53.499060	1443.040784	23.226000	-6.930000
	53.599066	1443.019377	23.672000	-6.770000
	53.699071	1443.019377	23.664000	-6.600000
	53.799077	1443.019377	23.664000	-6.600000
	53.899083	1443.029452	23.670000	-6.520000
	53.999089	1443.004268	24.096000	-6.800000
	54.099094	1443.004268	23.752000	-6.600000
	54.199100	1443.031975	23.876000	-6.380000
	54.299106	1443.039531	23.618000	-6.540000
	54.399112	1442.991685	23.896000	-6.980000
	54.499117	1442.985389	23.762000	-6.650000
	54.599123	1442.980352	23.748000	-6.640000
	54.699129	1442.810423	23.656000	-7.950000
	54.799134	1442.716017	23.334000	-7.350000
	54.903141	1442.747496	23.522000	-6.350000
	54.999146	1442.778975	23.848000	-6.350000
	55.099152	1442.796603	23.716000	-6.460000
	55.199157	1442.831862	23.580000	-6.320000
	55.299163	1442.865862	23.832000	-6.330000
	55.399169	1442.877195	23.674000	-6.510000
	55.499175	1442.903640	23.590000	-6.390000
	55.599180	1442.914973	23.696000	-6.510000
	55.699186	1442.918750	23.590000	-6.570000
	55.849195	1442.931343	23.636000	-6.500000
	55.949200	1442.928824	23.706000	-6.620000
	56.049206	1442.941417	23.590000	-6.500000
	56.149212	1442.964084	23.654000	-6.420000
	56.249218	1443.042180	23.790000	-5.980000
	56.349223	1443.033366	23.392000	-6.670000
	56.499232	1442.977967	23.762000	-7.040000
	56.599237	1442.896136	23.662000	-7.250000
	56.699243	1443.017078	23.344000	-5.640000
	56.799249	1443.015819	23.644000	-6.610000
	56.899255	1442.991894	23.618000	-6.790000
	56.999260	1442.994413	23.594000	-6.580000
	57.099266	1442.994413	23.594000	-6.580000
	57.199272	1442.989376	23.648000	-6.640000
	57.299277	1442.980561	23.562000	-6.670000
	57.399283	1442.994414	23.508000	-6.490000
	57.499289	1442.978044	23.714000	-6.730000
	57.599295	1442.971748	23.636000	-6.650000
	57.699300	1442.981823	23.662000	-6.520000
	57.799306	1442.975527	23.566000	-6.650000
	57.899312	1442.970490	23.574000	-6.640000
	57.999318	1442.960416	23.546000	-6.680000
	58.100323	1443.080103	24.000000	-5.650000
	58.199329	1443.110330	24.358000	-6.360000
	58.299335	1443.078849	23.408000	-6.850000
	58.399341	1443.058701	23.574000	-6.760000
	58.499346	1443.058701	23.618000	-6.600000
	58.599352	1443.022186	23.578000	-6.890000
	58.699358	1443.022186	23.578000	-6.890000
	58.809364	1443.004557	23.602000	-6.740000
	58.922370	1443.027226	23.648000	-6.420000
	59.020376	1443.005819	23.578000	-6.770000
	59.122382	1442.717583	23.824000	-8.890000
	59.220387	1442.834729	23.480000	-5.670000
	59.317393	1442.907778	23.460000	-6.020000
	59.399398	1442.964454	24.008000	-6.150000
	59.499403	1442.950603	23.634000	-6.710000
	59.604409	1442.960677	23.564000	-6.520000
	59.699415	1442.965714	23.650000	-6.560000
	59.799420	1442.973269	23.580000	-6.540000
	59.899426	1442.985862	23.574000	-6.500000
	59.999432	1442.982084	23.604000	-6.630000
	60.099438	1442.979566	23.512000	-6.620000
	60.199443	1443.053883	23.528000	-6.010000
	60.299449	1443.065217	23.578000	-6.510000
	60.449458	1442.860040	23.366000	-8.230000
	60.549463	1442.877669	23.570000	-6.460000
	60.649469	1442.861301	23.706000	-6.730000
	60.749475	1442.906637	23.516000	-6.240000
	60.850481	1442.906637	23.516000	-6.240000
	60.949486	1442.919229	23.666000	-6.500000
	61.063493	1442.914193	23.614000	-6.640000
	61.151498	1444.188022	20.836000	3.370000
	61.265504	1445.031077	21.340000	0.040000
	61.351509	1445.699060	21.444000	-1.330000
	61.449515	1446.196506	21.532000	-2.670000
	61.549520	1446.616584	21.542000	-3.280000
	61.669528	1446.763118	21.106000	-5.440000
	61.749532	1446.854054	21.850000	-5.880000
	61.849538	1447.190543	21.428000	-3.940000
	61.949543	1447.190543	21.428000	-3.940000
	62.049549	1447.468787	21.678000	-4.400000
	62.149555	1447.705274	21.446000	-4.730000
	62.249561	1447.924067	21.210000	-4.870000
	62.349566	1448.141627	21.028000	-4.880000
	62.449572	1448.385827	20.816000	-4.670000
	62.552578	1448.654156	20.620000	-4.480000
	62.649583	1448.955520	20.106000	-4.220000
	62.749589	1449.272179	19.992000	-4.100000
	62.849595	1449.501352	19.986000	-4.790000
	62.952601	1449.788927	19.434000	-4.330000
	63.049606	1449.920579	20.140000	-5.560000
	63.149612	1450.001584	19.884000	-5.960000
	63.249618	1450.121855	20.138000	-5.650000
	63.349624	1450.226934	20.172000	-5.770000
	63.449629	1450.306690	20.106000	-5.970000
	63.558635	1450.387716	20.064000	-5.960000
	63.650641	1450.470014	20.150000	-5.950000
	63.805650	1450.530785	20.016000	-6.120000
	63.862653	1450.530785	20.016000	-6.120000
	64.012661	1450.523190	19.986000	-6.660000
	64.049664	1450.551041	20.050000	-6.380000
	64.199672	1450.556105	19.996000	-6.560000
	64.299678	1450.533321	20.036000	-6.780000
	64.399683	1450.506741	20.032000	-6.810000
	64.499690	1450.680293	19.662000	-5.230000
	64.599695	1450.633460	19.938000	-6.970000
	64.699701	1450.600549	19.930000	-6.860000
	64.799706	1450.576499	19.976000	-6.790000
	64.899712	1450.473994	18.322000	-7.410000
	64.999718	1450.239932	19.946000	-8.450000
	65.105724	1450.234870	20.032000	-6.640000
	65.199729	1450.322225	20.138000	-5.910000
	65.299735	1450.274138	19.860000	-6.980000
	65.399741	1450.282997	19.882000	-6.530000
	65.499746	1450.262749	19.954000	-6.760000
	65.649755	1450.270342	19.878000	-6.540000
	65.760761	1450.261484	19.986000	-6.670000
	65.849767	1450.250094	19.954000	-6.690000
	65.954772	1450.218457	19.936000	-6.850000
	66.049778	1450.188087	20.014000	-6.840000
	66.149784	1450.143800	20.008000	-6.950000
	66.249789	1450.080538	20.078000	-7.100000
	66.349795	1450.038784	20.020000	-6.930000
	66.449801	1450.003357	19.966000	-6.880000
	66.549807	1449.983112	20.046000	-6.760000
	66.649812	1449.961603	20.062000	-6.770000
	66.799821	1449.952746	20.002000	-6.670000
	66.899827	1449.941358	20.042000	-6.690000
	66.999832	1449.917319	20.050000	-6.790000
	67.103838	1449.892016	20.038000	-6.800000
	67.212844	1449.874303	20.072000	-6.740000
	67.315850	1449.849000	20.076000	-6.800000
	67.398855	1449.840143	20.080000	-6.670000
	67.498861	1449.757924	19.936000	-7.250000
	67.648870	1449.759189	20.040000	-6.590000
	67.748875	1449.764250	20.078000	-6.560000
	67.848881	1449.764250	20.078000	-6.560000
	67.950887	1449.768045	20.080000	-6.570000
	68.052893	1449.794616	20.124000	-6.390000
	68.150898	1449.615034	19.244000	-8.020000
	68.248904	1449.637807	20.744000	-6.420000
	68.348909	1449.723859	20.828000	-5.920000
	68.451915	1449.751695	19.996000	-6.380000
	68.550921	1449.699832	20.000000	-7.010000
	68.656927	1449.768166	19.866000	-6.060000
	68.749932	1449.770696	20.112000	-6.580000
	68.851938	1449.784614	20.038000	-6.490000
	68.951944	1449.775758	20.046000	-6.670000
	69.059950	1449.775758	20.046000	-6.670000
	69.160956	1449.782084	19.986000	-6.550000
	69.262962	1449.782084	20.018000	-6.600000
	69.348967	1449.779553	19.978000	-6.620000
	69.453973	1449.768167	19.922000	-6.690000
	69.556979	1449.769433	19.978000	-6.590000
	69.648984	1449.761842	20.008000	-6.660000
	69.759990	1449.760577	20.028000	-6.610000
	69.867996	1449.769433	19.984000	-6.530000
	69.949001	1449.759312	19.994000	-6.680000
	70.063007	1449.751721	19.968000	-6.660000
	70.162013	1449.741600	19.958000	-6.680000
	70.269019	1449.741600	19.958000	-6.680000
	70.349024	1449.737805	19.992000	-6.630000
	70.454030	1449.734010	19.998000	-6.630000
	70.554036	1449.752988	20.010000	-6.450000
	70.653041	1449.752988	20.006000	-6.600000
	70.763048	1449.758049	20.000000	-6.560000
	70.849052	1449.746663	20.008000	-6.690000
	70.953058	1449.732747	19.970000	-6.710000
	71.049064	1449.726421	19.984000	-6.650000
	71.149070	1449.727686	19.968000	-6.590000
	71.249075	1449.739073	19.970000	-6.510000
	71.356081	1449.741603	19.990000	-6.580000
	71.449087	1449.739073	19.946000	-6.620000
	71.549093	1449.739073	19.946000	-6.620000
	71.649098	1449.739073	20.066000	-6.600000
	71.749104	1449.737808	19.974000	-6.610000
	71.899113	1449.734013	19.996000	-6.630000
	71.999118	1449.740338	20.000000	-6.550000
	72.099124	1449.750460	19.958000	-6.520000
	72.149127	1449.755521	19.978000	-6.560000
	72.299136	1449.747930	19.960000	-6.660000
	72.399141	1449.736544	19.948000	-6.690000
	72.499147	1449.732749	20.010000	-6.630000
	72.599153	1449.739074	19.936000	-6.550000
	72.702158	1449.739074	19.960000	-6.600000
	72.812165	1449.742870	20.132000	-6.570000
	72.899170	1449.742870	20.132000	-6.570000
	72.999176	1449.735279	20.140000	-6.660000
	73.099181	1449.737810	20.122000	-6.580000
	73.199187	1449.747931	20.106000	-6.520000
	73.299192	1449.754257	20.126000	-6.550000
	73.399199	1449.751727	20.170000	-6.620000
	73.499204	1449.754257	20.168000	-6.580000
	73.599210	1449.755522	20.100000	-6.590000
	73.699215	1449.760583	20.116000	-6.560000
	73.800221	1449.764378	20.136000	-6.570000
	73.899227	1449.764378	20.136000	-6.570000
	73.999233	1449.758053	20.146000	-6.650000
	74.099238	1449.745402	20.136000	-6.700000
	74.199244	1449.747932	20.134000	-6.580000
	74.299250	1449.751727	20.132000	-6.570000
	74.399256	1449.751727	20.154000	-6.600000
	74.499261	1449.741607	20.192000	-6.680000
	74.602267	1449.735281	20.222000	-6.650000
	74.710273	1449.737811	20.194000	-6.580000
	74.799278	1449.746667	20.164000	-6.530000
	74.899284	1449.746667	20.164000	-6.530000
	74.999290	1449.739077	20.192000	-6.640000
	75.151299	1449.728956	20.184000	-6.680000
	75.250304	1449.745404	20.154000	-6.470000
	75.349310	1449.750464	20.112000	-6.560000
	75.449316	1449.747934	20.028000	-6.620000
	75.549321	1449.745404	20.000000	-6.620000
	75.699330	1449.746669	19.992000	-6.590000
	75.799335	1449.745404	20.008000	-6.610000
	75.901341	1449.749199	20.092000	-6.570000
	76.006348	1449.740343	20.058000	-6.670000
	76.099353	1449.734018	20.042000	-6.650000
	76.199358	1449.725162	20.060000	-6.670000
	76.299364	1449.721367	19.956000	-6.630000
	76.399370	1449.716307	20.008000	-6.640000
	76.549378	1449.716307	20.008000	-6.640000
	76.649384	1449.720102	19.968000	-6.570000
	76.749390	1449.722632	19.962000	-6.580000
	76.849396	1449.723897	20.022000	-6.590000
	76.949401	1449.713777	20.086000	-6.680000
	77.049407	1449.707451	20.016000	-6.650000
	77.149413	1449.703656	20.012000	-6.630000
	77.249419	1449.708716	20.086000	-6.560000
	77.349424	1449.712512	20.088000	-6.570000
	77.449430	1449.722633	20.096000	-6.520000
	77.549436	1449.723898	20.128000	-6.590000
	77.649441	1449.718838	20.142000	-6.640000
	77.749447	1449.713777	20.138000	-6.640000
	77.849453	1449.709982	20.128000	-6.630000
	77.949459	1449.711247	20.120000	-6.590000
	78.057465	1449.721369	20.132000	-6.520000
	78.149470	1449.735286	20.122000	-6.490000
	78.254476	1449.734020	20.124000	-6.610000
	78.349482	1449.734020	20.124000	-6.610000
	78.458488	1449.728960	20.112000	-6.640000
	78.549493	1449.731490	20.094000	-6.580000
	78.662499	1449.735286	20.118000	-6.570000
	78.749505	1449.749203	20.138000	-6.490000
	78.863511	1449.759324	20.170000	-6.520000
	78.949516	1449.758059	20.204000	-6.610000
	79.049521	1449.750469	20.084000	-6.660000
	79.149527	1449.739083	20.116000	-6.690000
	79.249533	1449.742878	20.060000	-6.570000
	79.349539	1449.753000	20.086000	-6.520000
	79.449544	1449.766917	20.074000	-6.490000
	79.551550	1449.769447	20.126000	-6.580000
	79.649556	1449.756796	20.090000	-6.700000
	79.749562	1449.751736	20.144000	-6.640000
	79.849567	1449.753001	20.088000	-6.590000
	79.949573	1449.755531	20.142000	-6.580000
	80.059579	1449.763122	20.106000	-6.540000
	80.167585	1449.763122	20.106000	-6.540000
	80.249590	1449.773244	20.148000	-6.520000
	80.349596	1449.775774	20.132000	-6.580000
	80.449602	1449.771979	20.150000	-6.630000
	80.549607	1449.773244	20.072000	-6.590000
	80.649613	1449.779570	20.120000	-6.550000
	80.749619	1449.796018	20.040000	-6.470000
	80.849625	1449.802344	20.078000	-6.550000
	80.951630	1449.803609	20.118000	-6.590000
	81.056636	1449.798549	20.140000	-6.640000
	81.149642	1449.790958	20.114000	-6.660000
	81.249647	1449.787162	20.104000	-6.630000
	81.349653	1449.785897	20.098000	-6.610000
	81.499661	1449.785897	20.088000	-6.600000
	81.599668	1449.790958	20.102000	-6.560000
	81.699673	1449.796019	20.162000	-6.560000
	81.799679	1449.792223	20.176000	-6.630000
	81.906685	1449.790958	20.154000	-6.610000
	81.999690	1449.790958	20.156000	-6.600000
	82.099696	1449.790958	20.156000	-6.600000
	82.199702	1449.797284	20.056000	-6.550000
	82.299707	1449.802345	20.132000	-6.560000
	82.399713	1449.813732	20.096000	-6.510000
	82.499719	1449.811202	20.120000	-6.620000
	82.599725	1449.803611	20.140000	-6.660000
	82.699730	1449.807406	20.142000	-6.570000
	82.799736	1449.812467	20.104000	-6.560000
	82.899742	1449.821324	20.116000	-6.530000
	82.999747	1449.830181	20.120000	-6.530000
	83.099753	1449.832711	20.160000	-6.580000
	83.199759	1449.831446	20.170000	-6.610000
	83.299765	1449.825120	20.144000	-6.650000
	83.400771	1449.827650	20.128000	-6.580000
	83.499776	1449.832711	20.168000	-6.560000
	83.599782	1449.845364	20.114000	-6.500000
	83.699788	1449.854221	20.160000	-6.530000
	83.799793	1449.854221	20.160000	-6.530000
	83.899799	1449.856751	20.150000	-6.580000
	83.999804	1449.849160	20.126000	-6.660000
	84.099810	1449.835243	20.080000	-6.710000
	84.199816	1449.828917	20.040000	-6.650000
	84.299822	1449.839039	20.052000	-6.520000
	84.399827	1449.845366	20.140000	-6.550000
	84.499833	1449.845366	20.090000	-6.600000
	84.599839	1449.854222	20.164000	-6.530000
	84.699845	1449.850427	20.110000	-6.630000
	84.798851	1449.849162	20.094000	-6.610000
	84.898856	1449.844101	20.040000	-6.640000
	85.000862	1449.855488	20.040000	-6.510000
	85.098867	1449.863080	20.094000	-6.540000
	85.198873	1449.861815	20.110000	-6.610000
	85.298879	1449.865610	20.088000	-6.570000
	85.398885	1449.861815	20.056000	-6.630000
	85.498890	1449.861815	20.056000	-6.630000
	85.598896	1449.860549	20.072000	-6.610000
	85.698902	1449.856754	20.108000	-6.630000
	85.798908	1449.864345	20.050000	-6.540000
	85.898913	1449.882060	20.068000	-6.460000
	85.998919	1449.895979	20.072000	-6.490000
	86.098925	1449.895979	20.086000	-6.600000
	86.198930	1449.904836	20.132000	-6.530000
	86.298936	1449.898509	20.088000	-6.650000
	86.398942	1449.901040	20.026000	-6.580000
	86.498948	1449.903571	20.074000	-6.580000
	86.598953	1449.908632	20.112000	-6.560000
	86.705959	1449.917489	20.154000	-6.530000
	86.798965	1449.920020	20.146000	-6.580000
	86.898971	1449.914959	20.166000	-6.640000
	86.998976	1449.908632	20.218000	-6.650000
	87.098982	1449.898510	20.158000	-6.680000
	87.198987	1449.902306	20.122000	-6.570000
	87.298994	1449.902306	20.122000	-6.570000
	87.398999	1449.904837	20.166000	-6.580000
	87.499005	1449.908633	20.122000	-6.570000
	87.599010	1449.916225	20.180000	-6.540000
	87.699016	1449.920021	20.184000	-6.570000
	87.799022	1449.911164	20.174000	-6.670000
	87.899028	1449.911164	20.198000	-6.600000
	87.999033	1449.904837	20.206000	-6.650000
	88.099039	1449.908633	20.210000	-6.570000
	88.199045	1449.922552	20.186000	-6.490000
	88.300051	1449.939002	20.158000	-6.470000
	88.399056	1449.947859	20.132000	-6.530000
	88.499062	1449.954186	20.150000	-6.550000
	88.599068	1449.956717	20.154000	-6.580000
	88.699073	1449.947860	20.244000	-6.670000
	88.799079	1449.942799	20.252000	-6.640000
	88.899085	1449.937737	20.126000	-6.640000
	88.999091	1449.942799	20.142000	-6.560000
	89.099096	1449.942799	20.142000	-6.560000
	89.199102	1449.960514	20.120000	-6.460000
	89.299108	1449.971903	20.234000	-6.510000
	89.399114	1449.959250	20.184000	-6.700000
	89.499119	1449.952923	20.170000	-6.650000
	89.599125	1449.947862	20.192000	-6.640000
	89.699131	1449.945331	20.196000	-6.620000
	89.799136	1449.940270	20.162000	-6.640000
	89.899142	1449.945332	20.042000	-6.560000
	90.002148	1449.957985	19.990000	-6.500000
	90.099154	1449.968108	20.092000	-6.520000
	90.199159	1449.971904	20.118000	-6.570000
	90.299165	1449.970639	20.158000	-6.610000
	90.399171	1449.963047	20.130000	-6.660000
	90.499177	1449.966843	20.102000	-6.570000
	90.599182	1449.974436	20.124000	-6.540000
	90.699188	1449.976966	20.076000	-6.580000
	90.849196	1449.976966	20.076000	-6.580000
	90.949202	1449.984558	20.074000	-6.540000
	91.049208	1449.979497	20.150000	-6.640000
	91.149213	1449.987089	20.118000	-6.540000
	91.249219	1449.982028	20.098000	-6.640000
	91.349225	1449.975702	20.072000	-6.650000
	91.449231	1449.975702	20.100000	-6.600000
	91.549236	1449.979498	20.010000	-6.570000
	91.649242	1449.993417	20.020000	-6.490000
	91.749248	1449.999744	20.060000	-6.550000
	91.849254	1450.004806	20.114000	-6.560000
	91.949259	1450.007336	20.058000	-6.580000
	92.049265	1450.004806	20.080000	-6.620000
	92.149271	1449.987091	20.036000	-6.740000
	92.249277	1449.982030	20.094000	-6.640000
	92.349282	1449.988357	20.102000	-6.550000
	92.399285	1449.993419	20.112000	-6.560000
	92.549294	1450.004807	20.144000	-6.510000
	92.649299	1449.999746	20.114000	-6.640000
	92.749305	1450.006073	20.118000	-6.550000
	92.849311	1450.006073	20.082000	-6.600000
	92.949317	1450.002277	20.102000	-6.630000
	93.049322	1450.014931	19.990000	-6.500000
	93.149328	1450.032647	20.026000	-6.460000
	93.299336	1450.031382	20.034000	-6.610000
	93.399342	1450.025055	20.082000	-6.650000
	93.499348	1450.017463	20.060000	-6.660000
	93.599354	1450.016198	20.062000	-6.610000
	93.699359	1450.008606	20.044000	-6.660000
	93.799365	1450.016198	20.022000	-6.540000
	93.899371	1450.026321	20.050000	-6.520000
	94.049379	1450.022525	20.058000	-6.630000
	94.149385	1450.038976	20.076000	-6.470000
	94.249391	1450.038976	20.076000	-6.470000
	94.349397	1450.035180	20.088000	-6.630000
	94.449402	1450.035180	20.106000	-6.600000
	94.549408	1450.028853	20.044000	-6.650000
	94.649414	1450.023792	20.050000	-6.640000
	94.749420	1450.027588	20.010000	-6.570000
	94.849425	1450.036446	20.016000	-6.530000
	94.949431	1450.030119	20.062000	-6.650000
	95.049437	1450.036446	20.042000	-6.550000
	95.149442	1450.042773	20.028000	-6.550000
	95.249448	1450.044039	20.086000	-6.590000
	95.349454	1450.042773	20.010000	-6.610000
	95.449460	1450.045304	19.988000	-6.580000
	95.551466	1450.052897	20.082000	-6.540000
	95.649471	1450.059224	19.986000	-6.550000
	95.749477	1450.060489	20.000000	-6.590000
	95.849483	1450.063020	20.054000	-6.580000
	95.949488	1450.063020	20.054000	-6.580000
	96.055494	1450.054163	20.096000	-6.670000
	96.149499	1450.049101	20.036000	-6.640000
	96.253506	1450.051632	20.074000	-6.580000
	96.349511	1450.051632	20.064000	-6.600000
	96.449517	1450.061756	20.114000	-6.520000
	96.549522	1450.065552	20.100000	-6.570000
	96.649528	1450.070614	20.084000	-6.560000
	96.749534	1450.070614	20.090000	-6.600000
	96.849540	1450.069348	20.096000	-6.610000
	96.952546	1450.061756	20.074000	-6.660000
	97.049551	1450.061756	20.102000	-6.600000
	97.149557	1450.064287	20.082000	-6.580000
	97.249563	1450.078207	19.918000	-6.490000
	97.349568	1450.178217	20.680000	-5.810000
	97.449574	1450.045383	19.884000	-7.650000
	97.549580	1450.051711	20.100000	-6.550000
	97.649585	1450.054241	20.134000	-6.580000
	97.799594	1450.036527	20.080000	-6.740000
	97.899600	1450.044119	20.118000	-6.540000
	97.999606	1450.041588	20.112000	-6.620000
	98.099611	1450.030200	20.132000	-6.690000
	98.210618	1450.007425	20.128000	-6.780000
	98.321624	1450.007425	20.128000	-6.780000
	98.399628	1449.985915	20.082000	-6.770000
	98.504634	1449.956815	20.158000	-6.830000
	98.599640	1449.911270	20.196000	-6.960000
	98.699646	1449.841694	20.180000	-7.150000
	98.799651	1449.773385	20.178000	-7.140000
	98.899657	1449.693699	20.206000	-7.230000
	98.999663	1449.688638	20.242000	-6.640000
	99.149671	1449.619073	20.170000	-7.150000
	99.249677	1449.572274	19.968000	-6.970000
	99.349683	1449.517888	20.232000	-7.030000
	99.449688	1449.471092	20.244000	-6.970000
	99.549694	1449.425562	20.270000	-6.960000
	99.649700	1449.374976	20.246000	-7.000000
	99.749705	1449.321862	20.260000	-7.020000
	99.849711	1449.280130	20.230000	-6.930000
	99.899714	1449.280130	20.230000	-6.930000
	100.049723	1449.240927	20.194000	-6.640000
	100.149728	1449.219429	20.234000	-6.770000
	100.249734	1449.219429	20.234000	-6.770000
	100.350740	1449.204254	20.270000	-6.720000
	100.449746	1449.180227	20.270000	-6.790000
	100.549751	1449.120799	20.218000	-7.070000
	100.649757	1449.098038	20.228000	-6.780000
	100.749763	1449.080335	20.270000	-6.740000
	100.871769	1449.065161	20.280000	-6.720000
	100.949774	1449.056310	20.274000	-6.670000
	101.049780	1449.047458	20.282000	-6.670000
	101.149786	1449.036078	20.276000	-6.690000
	101.249791	1449.025962	20.156000	-6.680000
	101.349797	1449.028491	20.192000	-6.580000
	101.499805	1449.012053	20.236000	-6.730000
	101.599812	1448.998144	20.238000	-6.710000
	101.699817	1448.985500	20.290000	-6.700000
	101.799823	1448.962741	20.088000	-6.780000
	101.899828	1448.946304	20.300000	-6.730000
	101.999834	1448.937453	20.294000	-6.670000
	102.099840	1448.942511	20.296000	-6.560000
	102.248848	1448.936189	20.340000	-6.650000
	102.348854	1448.942511	20.352000	-6.550000
	102.450860	1448.942511	20.352000	-6.550000
	102.548866	1448.945040	20.236000	-6.580000
	102.648871	1448.936189	20.374000	-6.670000
	102.748877	1448.933660	20.298000	-6.620000
	102.848883	1448.946305	20.282000	-6.500000
	102.948888	1448.947570	20.296000	-6.590000
	103.048894	1448.958950	20.244000	-6.510000
	103.148900	1448.971595	20.230000	-6.500000
	103.248906	1448.974124	20.212000	-6.580000
	103.348911	1448.976653	20.344000	-6.580000
	103.448917	1448.969067	20.380000	-6.660000
	103.548923	1448.956423	20.384000	-6.700000
	103.648929	1448.952629	20.420000	-6.630000
	103.748934	1448.942514	20.390000	-6.680000
	103.852940	1448.941250	20.394000	-6.610000
	103.948946	1448.943778	20.352000	-6.580000
	104.048952	1448.938721	20.386000	-6.640000
	104.148957	1448.943779	20.392000	-6.560000
	104.248963	1448.943779	20.392000	-6.560000
	104.348969	1448.947572	20.354000	-6.570000
	104.448974	1448.953894	20.380000	-6.550000
	104.548980	1448.956423	20.348000	-6.580000
	104.648986	1448.952630	20.348000	-6.630000
	104.748991	1448.950101	20.342000	-6.620000
	104.848997	1448.950101	20.330000	-6.600000
	104.949003	1448.943779	20.378000	-6.650000
	105.049009	1448.932399	20.316000	-6.690000
	105.149014	1448.928606	20.348000	-6.630000
	105.249020	1448.918491	20.420000	-6.680000
	105.349026	1448.910905	20.498000	-6.660000
	105.451032	1448.922285	20.520000	-6.510000
	105.549037	1448.917227	20.468000	-6.640000
	105.649043	1448.923550	20.366000	-6.550000
	105.749049	1448.933665	20.332000	-6.520000
	105.849054	1449.042456	20.450000	-5.740000
	105.949060	1448.983034	20.164000	-7.070000
	106.049066	1448.860420	20.290000	-7.570000
	106.149072	1448.900886	20.212000	-6.280000
	106.249077	1448.886978	20.400000	-6.710000
	106.399086	1448.884449	20.388000	-6.620000
	106.499092	1448.883185	20.356000	-6.610000
	106.599097	1448.883185	20.422000	-6.600000
	106.699103	1448.884449	20.372000	-6.590000
	106.799109	1448.897093	20.396000	-6.500000
	106.899115	1448.897093	20.424000	-6.600000
	106.999120	1448.904680	20.402000	-6.540000
	107.099126	1448.913531	20.408000	-6.530000
	107.249135	1448.913531	20.408000	-6.530000
	107.349140	1448.918589	20.374000	-6.560000
	107.449146	1448.929969	20.412000	-6.510000
	107.549151	1448.927440	20.436000	-6.620000
	107.649158	1448.931234	20.382000	-6.570000
	107.749163	1448.922383	20.336000	-6.670000
	107.849169	1448.923647	20.294000	-6.590000
	107.949174	1448.923647	20.354000	-6.600000
	108.049180	1448.916061	20.372000	-6.660000
	108.149186	1448.918590	20.408000	-6.580000
	108.249192	1448.916061	20.420000	-6.620000
	108.349197	1448.923648	20.466000	-6.540000
	108.449203	1448.937557	20.502000	-6.490000
	108.549209	1448.942615	20.466000	-6.560000
	108.649215	1448.945144	20.426000	-6.580000
	108.749220	1448.938822	20.494000	-6.650000
	108.799223	1448.942615	20.454000	-6.570000
	108.949232	1448.942615	20.454000	-6.570000
	109.049237	1448.959054	20.480000	-6.470000
	109.149243	1448.960318	20.436000	-6.590000
	109.249249	1448.966641	20.422000	-6.550000
	109.349255	1448.964112	20.474000	-6.620000
	109.449260	1448.964112	20.442000	-6.600000
	109.549266	1448.967905	20.450000	-6.570000
	109.649272	1448.965376	20.284000	-6.620000
	109.749278	1448.962847	20.304000	-6.620000
	109.849283	1448.964112	20.334000	-6.590000
	109.949289	1448.957790	20.306000	-6.650000
	110.049294	1448.948939	20.370000	-6.670000
	110.149301	1448.941352	20.384000	-6.660000
	110.249306	1449.479453	19.800000	-2.360000
	110.349312	1449.390932	20.398000	-7.300000
	110.449317	1449.328967	20.348000	-7.090000
	110.554324	1449.267005	20.352000	-7.090000
	110.649329	1449.224010	20.344000	-6.940000
	110.749335	1449.187338	20.354000	-6.890000
	110.849340	1449.155725	20.338000	-6.850000
	110.949346	1449.131699	20.690000	-6.790000
	111.049352	1449.140552	20.162000	-6.530000
	111.149357	1449.216451	20.310000	-6.000000
	111.249363	1449.168401	19.922000	-6.980000
	111.399372	1449.114030	19.662000	-7.030000
	111.499378	1448.990141	20.608000	-7.580000
	111.599383	1448.967382	20.302000	-6.780000
	111.699389	1448.897852	20.742000	-7.150000
	111.799395	1448.924407	20.304000	-6.390000
	111.899400	1448.931993	20.390000	-6.540000
	111.999406	1448.931993	20.390000	-6.540000
	112.099412	1448.942109	20.368000	-6.520000
	112.199418	1448.950960	20.338000	-6.530000
	112.299423	1448.964870	20.254000	-6.490000
	112.399429	1449.000280	20.190000	-6.320000
	112.499435	1449.028101	20.232000	-6.380000
	112.599441	1449.049600	20.240000	-6.430000
	112.699446	1449.072363	20.234000	-6.420000
	112.799452	1449.100186	20.264000	-6.380000
	112.899457	1449.119156	20.300000	-6.450000
	113.004464	1449.134332	20.292000	-6.480000
	113.099469	1449.145714	20.250000	-6.510000
	113.199475	1449.162155	20.300000	-6.470000
	113.299480	1449.181126	20.234000	-6.450000
	113.399486	1449.203891	20.264000	-6.420000
	113.499492	1449.220333	20.308000	-6.470000
	113.599498	1449.231716	20.246000	-6.510000
	113.699503	1449.257012	20.266000	-6.400000
	113.849512	1449.257012	20.266000	-6.400000
	113.949518	1449.015563	19.874000	-8.510000
	114.049523	1449.062358	20.232000	-6.230000
	114.149529	1449.105359	20.216000	-6.260000
	114.249535	1449.138242	20.220000	-6.340000
	114.349541	1449.177451	20.258000	-6.290000
	114.449546	1449.233107	20.338000	-6.160000
	114.549552	1449.263463	19.514000	-6.360000
	114.649558	1449.282435	20.266000	-6.450000
	114.749563	1449.271053	20.242000	-6.690000
	114.849569	1449.273583	20.218000	-6.580000
	114.949575	1449.273583	20.286000	-6.600000
	115.049581	1449.264730	20.234000	-6.670000
	115.149586	1449.271053	20.186000	-6.550000
	115.249592	1449.291291	20.170000	-6.440000
	115.351598	1449.310263	20.158000	-6.450000
	115.449604	1449.310263	20.598000	-6.600000
	115.549609	1449.346946	20.194000	-6.310000
	115.649615	1449.346946	20.194000	-6.310000
	115.749620	1449.363389	20.150000	-6.470000
	115.849627	1449.359595	20.162000	-6.630000
	115.949632	1449.362125	20.130000	-6.580000
	116.049638	1449.364654	20.172000	-6.580000
	116.149643	1449.360860	20.168000	-6.630000
	116.249649	1449.357065	20.184000	-6.630000
	116.349655	1449.364654	20.202000	-6.540000
	116.449661	1449.369714	20.194000	-6.560000
	116.549666	1449.370979	20.270000	-6.590000
	116.649672	1449.374773	20.304000	-6.570000
	116.749678	1449.382362	20.174000	-6.540000
	116.849684	1449.398806	20.302000	-6.470000
	116.949689	1449.405130	20.302000	-6.550000
	117.051695	1449.417779	20.666000	-6.500000
	117.149701	1449.406396	20.292000	-6.690000
	117.249706	1449.415250	20.486000	-6.530000
	117.349712	1449.405132	20.360000	-6.680000
	117.449718	1449.405132	20.360000	-6.680000
	117.549724	1449.392484	20.312000	-6.700000
	117.649729	1449.400073	20.296000	-6.540000
	117.749735	1449.425372	20.258000	-6.400000
	117.849741	1449.467119	20.118000	-6.270000
	117.949747	1449.477239	20.232000	-6.520000
	118.049752	1449.481033	20.230000	-6.570000
	118.149758	1449.483563	20.226000	-6.580000
	118.249763	1449.484828	20.242000	-6.590000
	118.349769	1449.518985	20.204000	-6.330000
	118.449775	1449.521515	20.262000	-6.580000
	118.549781	1449.503807	20.234000	-6.740000
	118.655787	1449.502542	20.216000	-6.610000
	118.749792	1449.493688	20.202000	-6.670000
	118.849798	1449.491158	20.202000	-6.620000
	118.949804	1449.489893	20.248000	-6.610000
	119.049809	1449.492423	20.204000	-6.580000
	119.149815	1449.492423	20.204000	-6.580000
	119.249821	1449.502543	20.226000	-6.520000
	119.349826	1449.508867	20.264000	-6.550000
	119.449832	1449.500013	20.308000	-6.670000
	119.549838	1449.512663	20.372000	-6.500000
	119.649844	1449.489896	20.294000	-6.780000
	119.748849	1449.470923	20.244000	-6.750000
	119.848855	1449.462069	20.208000	-6.670000
	119.948861	1449.603825	14.600000	-5.480000
	120.048867	1520.087169	0.242000	76.080000
	120.148872	1591.279352	0.256000	75.860000
	120.255878	1712.904271	0.282000	78.180000
	120.348884	1812.194911	0.278000	77.010000
	120.448889	1909.225102	0.302000	76.610000
	120.548895	2055.550051	0.314000	78.190000
	120.648901	2090.044097	0.426000	65.490000
	120.751907	2115.108660	0.498000	59.550000
	120.860913	2115.108660	0.498000	59.550000
	120.950918	2143.038721	0.572000	61.410000
	121.048924	2167.539961	0.496000	58.580000
	121.148930	2555.376273	1.556000	-99.740000
	121.248935	2536.003056	0.776000	-64.200000
	121.348941	2705.790098	1.074000	-102.340000
	121.450947	1447.592665	20.098000	-3.900000
	121.548953	1447.888736	20.098000	-4.260000
	121.648958	1448.131626	20.180000	-4.680000
	121.751964	1448.341617	20.160000	-4.940000
	121.850970	1448.533905	20.114000	-5.080000
	121.948975	1448.671772	20.152000	-5.510000
	122.048981	1448.793198	20.180000	-5.640000
	122.148987	1448.896916	20.170000	-5.780000
	122.248992	1448.987986	20.160000	-5.880000
	122.401001	1449.061347	20.194000	-6.020000
	122.500007	1449.128385	20.262000	-6.070000
	122.599012	1449.176449	20.238000	-6.220000
	122.699018	1449.265005	20.024000	-5.900000
	122.799024	1449.423207	20.018000	-5.350000
	122.949032	1449.653672	19.684000	-4.780000
	123.049038	1449.875296	19.686000	-4.850000
	123.149044	1450.378006	18.180000	-2.640000
	123.249050	1451.389093	16.188000	1.310000
	123.399058	1451.389093	16.188000	1.310000
	123.499064	1452.156413	16.908000	-0.580000
	123.599070	1454.534923	10.606000	11.400000
	123.699075	1456.156227	13.016000	5.900000
	123.799081	1458.998998	8.888000	14.540000
	123.899087	1463.429610	5.618000	24.290000
	123.999093	1466.238791	8.502000	14.220000
	124.099098	1471.710749	3.966000	29.630000
	124.199104	1476.472810	4.802000	25.890000
	124.299109	1482.329843	3.630000	31.280000
	124.399116	1489.067233	2.808000	35.030000
	124.499121	1495.617039	2.828000	34.120000
	124.599127	1503.317699	2.018000	38.510000
	124.699132	1510.928846	2.060000	38.040000
	124.805139	1518.786753	1.746000	38.790000
	124.899144	1527.334937	1.616000	40.990000
	124.999150	1535.479991	1.620000	39.490000
	125.099155	1544.459528	1.454000	42.050000
	125.199161	1552.805992	1.590000	39.860000
	125.299167	1561.161491	1.442000	39.740000
	125.399173	1570.604926	1.422000	42.980000
	125.499178	1579.299538	1.442000	40.530000
	125.599184	1589.010855	1.266000	43.430000
	125.749193	1597.976877	1.294000	41.060000
	125.849198	1607.864325	1.136000	43.600000
	125.949204	1618.370090	1.052000	45.080000
	126.049210	1630.458338	0.952000	48.620000
	126.149215	1642.164849	0.938000	47.590000
	126.249221	1655.491118	0.848000	50.730000
	126.349227	1676.199427	0.530000	60.380000
	126.499236	1676.199427	0.530000	60.380000
	126.599241	1695.169929	0.672000	58.370000
	126.699247	1711.631445	0.680000	55.030000
	126.799253	1728.355216	0.488000	55.170000
	126.899258	1751.651752	0.638000	61.790000
	126.999264	1765.465605	0.626000	50.010000
	127.099270	1788.203512	0.582000	60.940000
	127.199275	1803.467344	0.706000	51.980000
	127.299281	1806.958670	1.418000	14.380000
	127.399287	1703.779204	3.094000	-92.970000
	127.499293	1630.382517	4.004000	-91.360000
	127.599298	1589.488870	5.508000	-86.690000
	127.699304	1561.256600	7.008000	-82.200000
	127.799310	1539.871770	8.428000	-77.810000
	127.899315	1523.456371	10.044000	-72.650000
	127.999321	1510.484203	11.654000	-67.250000
	128.100327	1500.068660	13.142000	-61.600000
	128.199333	1491.585508	14.622000	-55.930000
	128.299338	1491.585508	14.622000	-55.930000
	128.399344	1484.662346	15.900000	-50.140000
	128.499350	1478.955407	16.946000	-44.690000
	128.603356	1474.217320	17.882000	-39.670000
	128.699361	1470.288103	18.586000	-34.980000
	128.799367	1466.990689	19.102000	-31.000000
	128.899373	1464.244952	19.548000	-27.300000
	128.999379	1461.939395	19.778000	-24.210000
	129.099384	1460.004582	19.972000	-21.520000
	129.199390	1471.171319	0.792000	49.230000
	129.299396	1489.173528	0.418000	59.950000
	129.405402	1508.132983	0.386000	60.720000
	129.499407	1562.171889	0.278000	74.030000
	129.599413	1587.853566	0.326000	65.170000
	129.699419	1639.970800	0.300000	73.320000
	129.799424	1676.909033	0.306000	69.510000
	129.899430	1727.613710	0.312000	72.600000
	129.999435	1761.058737	0.330000	67.570000
	130.099442	1789.573823	0.376000	64.930000
	130.249450	1824.117345	0.358000	67.530000
	130.349456	1868.850873	0.352000	70.490000
	130.449461	1921.216054	0.344000	71.880000
	130.549467	1921.216054	0.344000	71.880000
	130.649473	1987.574223	0.374000	73.740000
	130.749478	2035.409043	0.406000	70.280000
	130.849484	2144.808296	0.434000	76.630000
	130.949490	2189.938885	0.472000	68.670000
	131.049496	2235.588213	0.520000	68.550000
	131.149501	2266.614047	0.614000	62.320000
	131.249507	2294.335734	0.770000	59.940000
	131.349513	2313.824009	1.142000	51.860000
	131.449519	2329.873842	1.508000	46.680000
	131.549524	2325.872238	2.560000	-25.710000
	131.649530	2884.253889	1.338000	-99.360000
	131.749536	2869.165906	1.356000	-53.650000
	131.854542	2872.878510	2.158000	7.820000
	131.949547	2883.760815	1.552000	30.030000
	132.049553	2905.569494	1.120000	48.940000
	132.149559	2944.905009	1.206000	61.870000
	132.249564	2984.621074	1.360000	61.800000
	132.349570	2984.621074	1.360000	61.800000
	132.449576	3021.347781	1.472000	60.060000
	132.552582	3064.820861	1.546000	62.960000
	132.649587	3097.564699	1.740000	57.150000
	132.749593	3134.842377	1.818000	59.620000
	132.849599	3167.647015	2.020000	56.700000
	132.949605	3205.015653	2.080000	59.220000
	133.049610	3234.681535	2.354000	53.920000
	133.149616	3261.637309	2.602000	51.390000
	133.249621	3288.158687	2.888000	50.780000
	133.351627	3299.756965	3.254000	28.130000
	133.449633	3308.009654	3.400000	19.690000
	133.549639	3296.112703	1.290000	-42.820000
	133.649644	3297.444278	1.300000	-1.990000
	133.749650	3288.594011	1.460000	-35.150000
	133.849656	3311.285382	1.522000	46.540000
	133.949662	3324.776891	1.474000	32.010000
	134.049667	3324.776891	1.474000	32.010000
	134.149673	3355.590703	1.034000	53.950000
	134.249679	3400.140136	1.316000	61.510000
	134.349685	3438.436961	1.542000	58.270000
	134.449690	3477.370448	1.686000	58.380000
	134.549696	3511.814563	1.894000	55.480000
	134.649702	3553.636079	2.046000	59.410000
	134.749707	3584.471997	2.310000	52.380000
	134.849713	3619.976976	2.494000	55.480000
	134.949719	3652.697991	2.768000	53.360000
	135.056725	3684.630152	3.166000	52.560000
	135.149730	3710.082902	3.570000	46.570000
	135.249736	3730.466779	4.024000	40.320000
	135.349742	3747.349246	4.432000	34.910000
	135.449748	3759.636700	4.580000	26.230000
	135.549753	3774.655202	5.228000	31.470000
	135.649759	3785.233098	5.638000	22.330000
	135.749764	3794.010900	6.028000	18.030000
	135.849771	3794.010900	6.028000	18.030000
	135.949776	3800.295946	6.020000	11.590000
	136.049782	3804.524929	6.136000	5.880000
	136.149787	3807.392226	6.070000	1.940000
	136.249793	3809.791189	6.192000	0.560000
	136.349799	3812.011791	5.820000	0.030000
	136.449805	3813.521529	6.096000	-2.080000
	136.549810	3814.947853	6.208000	-2.330000
	136.649816	3816.492393	6.120000	-1.980000
	136.757822	3816.615644	5.304000	-6.230000
	136.849828	3817.680697	5.750000	-3.410000
	136.949833	3818.732642	5.912000	-3.450000
	137.049839	3820.481017	6.314000	-1.380000
	137.149845	3821.500206	6.070000	-3.550000
	137.248850	3822.630376	6.194000	-3.220000
	137.348856	3823.586424	6.092000	-3.740000
	137.498865	3823.586424	6.092000	-3.740000
	137.602870	3823.319563	5.702000	-7.400000
	137.698876	3823.593270	5.932000	-5.780000
	137.798882	3824.258121	5.974000	-4.610000
	137.898888	3824.308184	6.054000	-6.450000
	137.998893	3824.722303	5.966000	-5.360000
	138.098899	3825.169898	6.082000	-5.260000
	138.198905	3823.774644	5.820000	-10.780000
	138.298910	3824.472997	5.904000	-4.510000
	138.398916	3822.920807	5.670000	-11.250000
	138.498922	3823.521980	5.972000	-4.800000
	138.598927	3823.358515	5.648000	-7.090000
	138.698933	3821.085749	4.048000	-13.400000
	138.801939	3818.868109	3.398000	-13.240000
	138.898945	3817.451785	4.044000	-10.850000
	138.998950	3816.389464	5.034000	-9.790000
	139.098956	3813.824908	5.634000	-14.280000
	139.198962	3809.665546	5.198000	-18.970000
	139.298967	3808.225989	5.696000	-10.930000
	139.398973	3806.360215	5.114000	-12.210000
	139.498979	3805.394003	5.242000	-9.510000
	139.648988	3805.613251	5.680000	-5.940000
	139.748993	3806.598424	5.854000	-3.640000
	139.848999	3806.598424	5.854000	-3.640000
	139.949005	3807.697444	5.986000	-3.300000
	140.050011	3807.109567	5.838000	-8.370000
	140.149016	3809.620521	5.940000	0.890000
	140.249022	3810.149623	5.354000	-5.010000
	140.349028	3812.604727	5.988000	0.720000
	140.449033	3813.940078	5.536000	-2.600000
	140.549039	3815.686258	6.184000	-1.380000
	140.649045	3818.627187	6.634000	2.130000
	140.749051	3821.487949	6.654000	1.890000
	140.849056	3822.651685	6.236000	-3.120000
	140.949062	3823.725134	6.136000	-3.390000
	141.049067	3825.577260	5.988000	-1.080000
	141.150074	3827.085625	6.664000	-2.100000
	141.249079	3828.133445	6.240000	-3.470000
	141.349085	3828.484416	6.334000	-5.550000
	141.449090	3829.923081	6.428000	-2.310000
	141.549096	3829.923081	6.428000	-2.310000
	141.649102	3830.934707	6.492000	-3.580000
	141.749108	3831.205614	6.386000	-5.790000
	141.849113	3831.865082	6.540000	-4.630000
	141.949119	3831.373731	5.700000	-8.070000
	142.049125	3831.617898	6.266000	-5.870000
	142.149131	3831.226828	5.818000	-7.770000
	142.249136	3831.056349	6.138000	-7.110000
	142.349142	3832.111981	6.536000	-3.450000
	142.449148	3830.456081	4.340000	-11.550000
	142.549153	3830.402601	5.646000	-6.760000
	142.649159	3831.239710	6.556000	-4.100000
	142.750165	3831.664625	6.310000	-5.330000
	142.849171	3832.049402	6.186000	-5.450000
	142.951177	3832.253454	6.070000	-5.990000
	143.049182	3832.651687	6.028000	-5.410000
	143.149188	3833.994059	6.726000	-2.600000
	143.249194	3833.994059	6.726000	-2.600000
	143.349199	3833.987368	6.034000	-6.620000
	143.449205	3834.208263	5.854000	-5.940000
	143.549211	3833.703236	5.956000	-8.110000
	143.649217	3833.181558	5.440000	-8.160000
	143.749222	3832.987586	5.822000	-7.180000
	143.849228	3832.920693	5.734000	-6.800000
	143.949234	3833.211829	6.008000	-5.730000
	144.049239	3832.014591	4.274000	-10.180000
	144.149245	3832.141689	5.586000	-6.220000
	144.249251	3832.446155	5.880000	-5.690000
	144.352257	3832.426089	6.076000	-6.660000
	144.449262	3833.391309	6.034000	-3.720000
	144.549268	3831.734856	4.476000	-11.550000
	144.649274	3773.398188	1.120000	-79.710000
	144.749279	3737.608168	1.240000	-69.930000
	144.849285	3741.712075	2.330000	5.720000
	144.949291	3713.946619	1.234000	-63.620000
	145.049296	3713.946619	1.234000	-63.620000
	145.149302	3703.398674	1.808000	-36.550000
	145.249308	3716.382493	3.534000	27.970000
	145.349314	3714.519350	2.100000	-12.340000
	145.449319	3883.676139	0.562000	-104.310000
	145.549325	1447.585053	19.998000	-3.960000
	145.649331	1447.898876	20.010000	-4.120000
	145.749337	1448.148104	20.004000	-4.630000
	145.849342	1448.398642	19.972000	-4.620000
	145.949348	1448.559281	20.058000	-5.330000
	146.055354	1448.678167	20.134000	-5.660000
	146.149359	1448.795797	20.082000	-5.670000
	146.249365	1448.886860	20.138000	-5.880000
	146.349371	1448.956421	20.172000	-6.050000
	146.449377	1449.095595	20.158000	-5.500000
	146.549382	1449.095595	20.118000	-6.600000
	146.649388	1449.165165	19.868000	-6.050000
	146.749394	1449.165165	19.868000	-6.050000
	146.849400	1449.260049	18.808000	-5.850000
	146.949405	1449.410650	19.480000	-5.410000
	147.049411	1449.418240	20.118000	-6.540000
	147.149416	1449.515672	19.748000	-5.830000
	147.249423	1464.873558	0.422000	56.970000
	147.349428	1462.461332	19.744000	-24.970000
	147.449434	1460.444690	19.902000	-22.120000
	147.549439	1458.752576	20.014000	-19.720000
	147.650445	1457.311552	20.086000	-17.830000
	147.749451	1456.107648	20.140000	-16.020000
	147.849457	1455.081581	20.240000	-14.650000
	147.949462	1454.202534	20.208000	-13.510000
	148.049468	1453.565245	20.314000	-11.620000
	148.149474	1452.939687	20.208000	-11.530000
	148.249480	1452.423688	20.158000	-10.670000
	148.349485	1452.423688	20.158000	-10.670000
	148.449491	1451.980196	20.174000	-10.100000
	148.549497	1451.602753	20.176000	-9.580000
	148.649502	1451.298870	20.148000	-9.000000
	148.749508	1451.034296	20.196000	-8.690000
	148.849514	1450.801410	20.168000	-8.440000
	148.949520	1450.605255	20.160000	-8.150000
	149.049525	1450.450875	20.136000	-7.820000
	149.149531	1450.315487	20.154000	-7.670000
	149.249537	1450.195290	20.104000	-7.550000
	149.353543	1450.090281	20.118000	-7.430000
	149.449548	1450.005517	20.094000	-7.270000
	149.549554	1449.924553	20.102000	-7.240000
	149.649559	1449.873949	20.082000	-7.000000
	149.749565	1449.820817	20.092000	-7.020000
	149.849571	1449.780336	20.116000	-6.920000
	149.949577	1449.744915	20.112000	-6.880000
	150.049582	1449.714555	20.112000	-6.840000
	150.199591	1449.714555	20.112000	-6.840000
	150.299597	1449.676606	20.096000	-6.900000
	150.399602	1449.653836	20.082000	-6.780000
	150.499608	1449.631067	20.080000	-6.780000
	150.599614	1449.622212	20.108000	-6.670000
	150.699620	1449.615887	20.108000	-6.650000
	150.799625	1449.605767	20.086000	-6.680000
	150.899631	1449.600707	20.096000	-6.640000
	150.999637	1449.593117	20.110000	-6.660000
	151.099643	1449.582997	20.138000	-6.680000
	151.199648	1449.571613	20.106000	-6.690000
	151.299654	1449.553904	20.108000	-6.740000
	151.399660	1449.548844	20.100000	-6.640000
	151.499665	1449.545049	20.100000	-6.630000
	151.599671	1449.543784	20.116000	-6.610000
	151.699677	1449.551374	20.080000	-6.540000
	151.749680	1449.545050	20.092000	-6.650000
	151.899688	1449.553905	20.076000	-6.530000
	151.999694	1449.555170	20.128000	-6.590000
	152.099700	1449.550110	20.120000	-6.640000
	152.199706	1449.545050	20.126000	-6.640000
	152.299711	1449.538725	20.116000	-6.650000
	152.399717	1449.547580	20.138000	-6.530000
	152.499722	1449.538726	20.106000	-6.670000
	152.649731	1449.550111	20.146000	-6.510000
	152.749737	1449.548846	20.130000	-6.610000
	152.849742	1449.557701	20.126000	-6.530000
	152.949749	1449.560231	20.160000	-6.580000
	153.049754	1449.557701	20.156000	-6.620000
	153.149760	1449.556436	20.174000	-6.610000
	153.249765	1449.538727	20.136000	-6.740000
	153.349771	1449.531138	20.148000	-6.660000
	153.499780	1449.531138	20.148000	-6.660000
	153.599785	1449.528608	20.138000	-6.620000
	153.699791	1449.528608	20.162000	-6.600000
	153.799797	1449.539993	20.114000	-6.510000
	153.899803	1449.542523	20.140000	-6.580000
	153.999808	1449.550113	20.092000	-6.540000
	154.099814	1449.557703	20.086000	-6.540000
	154.199820	1449.564028	20.166000	-6.550000
	154.299826	1449.557703	20.154000	-6.650000
	154.399831	1449.556438	20.154000	-6.610000
	154.499837	1449.548849	20.126000	-6.660000
	154.599843	1449.545054	20.124000	-6.630000
	154.698848	1449.539994	20.118000	-6.640000
	154.798854	1449.543789	20.108000	-6.570000
	154.898860	1449.553909	20.092000	-6.520000
	154.948863	1449.561499	20.094000	-6.540000
	155.098871	1449.567824	20.092000	-6.550000
	155.198877	1449.567824	20.094000	-6.600000
	155.298883	1449.567824	20.094000	-6.600000
	155.398889	1449.570354	20.094000	-6.580000
	155.498894	1449.575414	20.090000	-6.560000
	155.598900	1449.569089	20.096000	-6.650000
	155.698905	1449.558970	20.126000	-6.680000
	155.798912	1449.555175	20.130000	-6.630000
	155.898917	1449.548850	20.124000	-6.650000
	155.998923	1449.555175	20.112000	-6.550000
	156.098928	1449.562765	20.088000	-6.540000
	156.198934	1449.567825	20.078000	-6.560000
	156.298940	1449.570355	20.144000	-6.580000
	156.398946	1449.580475	20.182000	-6.520000
	156.498951	1449.585535	20.140000	-6.560000
	156.603957	1449.581741	20.148000	-6.630000
	156.698963	1449.575416	20.148000	-6.650000
	156.798968	1449.576681	20.130000	-6.590000
	156.898974	1449.576681	20.130000	-6.590000
	156.998980	1449.574151	20.136000	-6.620000
	157.098986	1449.584271	20.114000	-6.520000
	157.198991	1449.588066	20.146000	-6.570000
	157.298997	1449.599452	20.156000	-6.510000
	157.399003	1449.601982	20.138000	-6.580000
	157.499009	1449.601982	20.084000	-6.600000
	157.599014	1449.610837	20.138000	-6.530000
	157.699020	1449.610837	20.084000	-6.600000
	157.799026	1449.610837	20.104000	-6.600000
	157.899032	1449.601982	20.120000	-6.670000
	157.999037	1449.601982	20.028000	-6.600000
	158.099043	1449.600717	20.030000	-6.610000
	158.201049	1449.593127	19.998000	-6.660000
	158.299054	1449.607043	20.014000	-6.490000
	158.399060	1449.615898	20.068000	-6.530000
	158.499066	1449.631080	20.070000	-6.480000
	158.599072	1449.628549	20.136000	-6.620000
	158.699077	1449.628549	20.136000	-6.620000
	158.799083	1449.637405	20.070000	-6.530000
	158.899089	1449.634875	20.100000	-6.620000
	158.999094	1449.629815	19.990000	-6.640000
	159.099100	1449.620960	20.076000	-6.670000
	159.199106	1449.618430	20.046000	-6.620000
	159.299111	1449.619695	20.018000	-6.590000
	159.399117	1449.624755	20.038000	-6.560000
	159.499123	1449.629815	20.070000	-6.560000
	159.599129	1449.633610	20.068000	-6.570000
	159.700134	1449.639936	20.034000	-6.550000
	159.799140	1449.647526	20.026000	-6.540000
	159.899146	1449.651322	20.064000	-6.570000
	159.999152	1449.648791	20.086000	-6.620000
	160.099157	1449.646261	20.076000	-6.620000
	160.199163	1449.646261	20.066000	-6.600000
	160.299169	1449.646261	20.066000	-6.600000
	160.399174	1449.633611	20.074000	-6.700000
	160.499180	1449.631081	20.060000	-6.620000
	160.599186	1449.620961	20.106000	-6.680000
	160.699192	1449.617166	20.058000	-6.630000
	160.799197	1449.622226	20.092000	-6.560000
	160.899203	1449.628552	20.102000	-6.550000
	160.999209	1449.632347	20.068000	-6.570000
	161.099215	1449.644998	20.102000	-6.500000
	161.199220	1449.655119	20.096000	-6.520000
	161.299226	1449.658914	20.148000	-6.570000
	161.406232	1449.658914	20.130000	-6.600000
	161.499238	1449.647529	20.084000	-6.690000
	161.599243	1449.642469	20.094000	-6.640000
	161.699249	1449.636143	20.058000	-6.650000
	161.799254	1449.638674	20.072000	-6.580000
	161.899260	1449.639939	20.118000	-6.590000
	161.999266	1449.633614	20.080000	-6.650000
	162.099272	1449.641204	20.100000	-6.540000
	162.249280	1449.641204	20.100000	-6.540000
	162.349286	1449.652590	20.076000	-6.510000
	162.449292	1449.665241	20.094000	-6.500000
	162.549297	1449.674097	20.106000	-6.530000
	162.649303	1449.667772	20.070000	-6.650000
	162.749309	1449.670302	20.076000	-6.580000
	162.849315	1449.662712	20.056000	-6.660000
	162.949320	1449.653856	20.108000	-6.670000
	163.049326	1449.642471	20.106000	-6.690000
	163.149332	1449.647531	20.062000	-6.560000
	163.249338	1449.643736	20.108000	-6.630000
	163.349343	1449.646266	20.082000	-6.580000
	163.449349	1449.648797	20.188000	-6.580000
	163.549355	1449.651327	20.116000	-6.580000
	163.651361	1449.652592	20.106000	-6.590000
	163.749366	1449.665243	20.064000	-6.500000
	163.849372	1449.665243	20.144000	-6.600000
	163.949378	1449.665243	20.172000	-6.600000
	164.049383	1449.669038	20.150000	-6.570000
	164.149389	1449.665243	20.114000	-6.630000
	164.249394	1449.665243	20.114000	-6.630000
	164.349401	1449.662713	20.072000	-6.620000
	164.449406	1449.656388	20.054000	-6.650000
	164.549412	1449.657653	20.038000	-6.590000
	164.649417	1449.662713	20.042000	-6.560000
	164.749423	1449.665243	20.038000	-6.580000
	164.849429	1449.674099	20.054000	-6.530000
	164.949435	1449.669039	20.148000	-6.640000
	165.049440	1449.675364	20.096000	-6.550000
	165.149446	1449.677895	20.158000	-6.580000
	165.249452	1449.676630	20.134000	-6.610000
	165.356458	1449.670304	20.148000	-6.650000
	165.449463	1449.665244	20.076000	-6.640000
	165.549469	1449.661449	20.104000	-6.630000
	165.649475	1449.656389	20.106000	-6.640000
	165.749480	1449.662714	20.094000	-6.550000
	165.849486	1449.662714	20.094000	-6.550000
	165.949492	1449.663979	20.080000	-6.590000
	166.049498	1449.656389	19.952000	-6.660000
	166.149503	1449.750039	20.034000	-5.860000
	166.249509	1449.748774	20.102000	-6.610000
	166.349515	1449.731063	20.130000	-6.740000
	166.449521	1449.720942	20.084000	-6.680000
	166.549526	1449.712087	20.098000	-6.670000
	166.649532	1449.704496	20.092000	-6.660000
	166.749537	1449.701966	20.010000	-6.620000
	166.850543	1449.695641	20.064000	-6.650000
	166.949549	1449.699436	20.078000	-6.570000
	167.049555	1449.707027	20.044000	-6.540000
	167.149560	1449.705762	20.068000	-6.610000
	167.249566	1449.705762	20.146000	-6.600000
	167.349572	1449.708292	20.086000	-6.580000
	167.449578	1449.704497	20.024000	-6.630000
	167.549583	1449.699436	20.090000	-6.640000
	167.649589	1449.699436	20.090000	-6.640000
	167.749595	1449.699436	20.112000	-6.600000
	167.852601	1449.696906	20.106000	-6.620000
	167.949606	1449.693111	20.118000	-6.630000
	168.049612	1449.691846	20.134000	-6.610000
	168.149618	1449.699437	20.054000	-6.540000
	168.249623	1449.700702	20.092000	-6.590000
	168.349629	1449.695641	20.102000	-6.640000
	168.453635	1449.695641	20.102000	-6.600000
	168.549641	1449.685521	20.070000	-6.680000
	168.649646	1449.682991	20.082000	-6.620000
	168.749652	1449.688051	20.046000	-6.560000
	168.849658	1449.691847	20.020000	-6.570000
	168.949664	1449.693112	20.060000	-6.590000
	169.049669	1449.698172	20.080000	-6.560000
	169.149675	1449.695642	20.088000	-6.620000
	169.249681	1449.705763	20.078000	-6.520000
	169.399689	1449.700703	20.064000	-6.640000
	169.499695	1449.700703	20.076000	-6.600000
	169.599700	1449.700703	20.076000	-6.600000
	169.699707	1449.698173	20.078000	-6.620000
	169.799712	1449.701968	20.046000	-6.570000
	169.899718	1449.709559	20.080000	-6.540000
	169.999723	1449.718415	20.006000	-6.530000
	170.099729	1449.718415	19.954000	-6.600000
	170.199735	1449.713354	20.092000	-6.640000
	170.299741	1449.707029	20.060000	-6.650000
	170.399746	1449.698174	20.032000	-6.670000
	170.499752	1449.696908	20.076000	-6.610000
	170.599758	1449.700704	20.054000	-6.570000
	170.700764	1449.700704	20.098000	-6.600000
	170.799769	1449.701969	20.056000	-6.590000
	170.899775	1449.713355	20.052000	-6.510000
	170.999781	1449.714620	20.010000	-6.590000
	171.099786	1449.724742	20.020000	-6.520000
	171.199792	1449.722211	20.052000	-6.620000
	171.299798	1449.722211	20.052000	-6.620000
	171.399804	1449.714621	20.058000	-6.660000
	171.499809	1449.715886	20.096000	-6.590000
	171.599815	1449.714621	20.062000	-6.610000
	171.699821	1449.718416	20.070000	-6.570000
	171.799827	1449.719681	20.132000	-6.590000
	171.899832	1449.722212	20.094000	-6.580000
	172.002838	1449.723477	20.092000	-6.590000
	172.115845	1449.720947	20.124000	-6.620000
	172.198849	1449.722212	20.080000	-6.590000
	172.303855	1449.732333	20.046000	-6.520000
	172.399861	1449.728538	20.072000	-6.630000
	172.498867	1449.732333	20.050000	-6.570000
	172.648875	1449.731068	20.042000	-6.610000
	172.748881	1449.724743	19.972000	-6.650000
	172.850887	1449.733599	19.966000	-6.530000
	172.948892	1449.746251	19.968000	-6.500000
	173.102901	1449.755107	19.964000	-6.530000
	173.198906	1449.757637	19.984000	-6.580000
	173.298912	1449.760167	20.018000	-6.580000
	173.449921	1449.757637	20.018000	-6.620000
	173.548926	1449.752577	20.014000	-6.640000
	173.648932	1449.750046	19.986000	-6.620000
	173.748938	1449.760168	19.936000	-6.520000
	173.848944	1449.760168	19.908000	-6.600000
	174.008953	1449.755107	19.896000	-6.640000
	174.103958	1449.752577	19.924000	-6.620000
	174.198964	1449.752577	19.908000	-6.600000
	174.298969	1449.757638	19.890000	-6.560000
	174.451978	1449.757638	19.890000	-6.560000
	174.548984	1449.771555	19.920000	-6.490000
	174.649990	1449.775351	19.924000	-6.570000
	174.748995	1449.771555	19.964000	-6.630000
	174.850001	1449.766495	20.020000	-6.640000
	174.959007	1449.758904	20.002000	-6.660000
	175.050013	1449.765230	20.024000	-6.550000
	175.149018	1449.763965	20.064000	-6.610000
	175.262024	1449.760169	20.008000	-6.630000
	175.351030	1449.756374	20.046000	-6.630000
	175.449035	1449.757639	20.014000	-6.590000
	175.549041	1449.753844	20.026000	-6.630000
	175.650047	1449.758904	20.034000	-6.560000
	175.803056	1449.760169	20.064000	-6.590000
	175.899061	1449.763965	20.072000	-6.570000
	176.007067	1449.757639	20.058000	-6.650000
	176.104073	1449.757639	20.044000	-6.600000
	176.199078	1449.760170	20.010000	-6.580000
	176.299084	1449.762700	20.024000	-6.580000
	176.450092	1449.761435	20.024000	-6.610000
	176.599101	1449.761435	20.024000	-6.610000
	176.699107	1449.751314	20.028000	-6.680000
	176.799112	1449.761435	19.998000	-6.520000
	176.849115	1449.767761	19.990000	-6.550000
	176.999124	1449.776618	20.000000	-6.530000
	177.099130	1449.774087	20.026000	-6.620000
	177.199135	1449.766497	20.046000	-6.660000
	177.299141	1449.758906	20.016000	-6.660000
	177.399147	1449.763967	20.000000	-6.560000
	177.503153	1449.769027	20.014000	-6.560000
	177.599158	1449.779149	20.028000	-6.520000
	177.699164	1449.782944	20.034000	-6.570000
	177.799170	1449.791801	20.028000	-6.530000
	177.899176	1449.788005	20.022000	-6.630000
	177.999181	1449.780415	20.040000	-6.660000
	178.099187	1449.775354	20.030000	-6.640000
	178.199193	1449.777884	20.016000	-6.580000
	178.299198	1449.779150	20.086000	-6.590000
	178.449207	1449.788006	20.066000	-6.530000
	178.549212	1449.794332	20.038000	-6.550000
	178.652218	1449.782946	20.014000	-6.690000
	178.749224	1449.774090	20.004000	-6.670000
	178.868231	1449.770294	19.940000	-6.630000
	178.949235	1449.780416	19.934000	-6.520000
	179.099244	1449.790538	19.908000	-6.520000
	179.199250	1449.803190	19.952000	-6.500000
	179.299255	1449.805721	19.978000	-6.580000
	179.399261	1449.798130	19.960000	-6.660000
	179.499267	1449.795599	19.962000	-6.620000
	179.599273	1449.795599	19.962000	-6.620000
	179.705279	1449.796864	19.932000	-6.590000
	179.799284	1449.799395	19.942000	-6.580000
	179.899290	1449.806986	19.944000	-6.540000
	179.999296	1449.817108	19.974000	-6.520000
	180.099301	1449.824700	19.998000	-6.540000
	180.199307	1449.828495	19.990000	-6.570000
	180.299313	1449.825965	19.958000	-6.620000
	180.399318	1449.822169	19.970000	-6.630000
	180.499324	1449.815843	19.918000	-6.650000
	180.599330	1449.814578	19.906000	-6.610000
	180.705336	1449.820904	19.938000	-6.550000
	180.799341	1449.825965	19.966000	-6.560000
	180.899347	1449.824700	19.936000	-6.610000
	180.999353	1449.820904	19.960000	-6.630000
	181.099359	1449.813313	20.042000	-6.660000
	181.199364	1449.813313	20.056000	-6.600000
	181.299370	1449.819639	19.990000	-6.550000
	181.449378	1449.828496	20.040000	-6.530000
	181.549384	1449.837353	20.052000	-6.530000
	181.649390	1449.837353	20.052000	-6.530000
	181.749396	1449.829762	20.096000	-6.660000
	181.849401	1449.820906	20.104000	-6.670000
	181.949407	1449.818375	20.048000	-6.620000
	182.049413	1449.815845	20.004000	-6.620000
	182.149418	1449.813314	20.056000	-6.620000
	182.249424	1449.817110	20.096000	-6.570000
	182.349430	1449.818375	20.050000	-6.590000
	182.449436	1449.831028	20.066000	-6.500000
	182.549441	1449.831028	20.050000	-6.600000
	182.649447	1449.831028	20.034000	-6.600000
	182.749453	1449.827232	20.064000	-6.630000
	182.859459	1449.834824	20.020000	-6.540000
	182.949464	1449.837354	20.044000	-6.580000
	183.049470	1449.833559	20.058000	-6.630000
	183.149476	1449.836089	20.056000	-6.580000
	183.249482	1449.829763	20.022000	-6.650000
	183.349487	1449.828498	20.028000	-6.610000
	183.449493	1449.822172	20.054000	-6.650000
	183.599502	1449.825968	20.068000	-6.570000
	183.699507	1449.831029	20.070000	-6.560000
	183.799513	1449.850008	20.092000	-6.450000
	183.899518	1449.850008	20.092000	-6.450000
	183.999524	1449.857600	20.078000	-6.540000
	184.099530	1449.863926	20.066000	-6.550000
	184.199536	1449.853804	20.052000	-6.680000
	184.299541	1449.856335	20.084000	-6.580000
	184.399547	1449.851274	20.054000	-6.640000
	184.499553	1449.844948	20.068000	-6.650000
	184.599559	1449.851274	20.066000	-6.550000
	184.699564	1449.858866	20.064000	-6.540000
	184.799570	1449.865192	20.076000	-6.550000
	184.899576	1449.860131	20.110000	-6.640000
	184.999581	1449.855071	20.118000	-6.640000
	185.099587	1449.851275	20.100000	-6.630000
	185.202593	1449.848744	20.120000	-6.620000
	185.299599	1449.853805	20.070000	-6.560000
	185.399604	1449.852540	20.076000	-6.610000
	185.499610	1449.855071	20.084000	-6.580000
	185.599616	1449.855071	20.084000	-6.580000
	185.699622	1449.852540	20.040000	-6.620000
	185.799627	1449.856336	20.030000	-6.570000
	185.899633	1449.844949	20.062000	-6.690000
	185.999639	1449.850010	20.076000	-6.560000
	186.099645	1449.850010	20.118000	-6.600000
	186.199650	1449.858867	20.098000	-6.530000
	186.299656	1449.860132	20.120000	-6.590000
	186.399662	1449.851276	20.212000	-6.670000
	186.499667	1449.848746	20.198000	-6.620000
	186.599673	1449.846215	20.160000	-6.620000
	186.699679	1449.842419	20.116000	-6.630000
	186.802685	1449.842419	20.134000	-6.600000
	186.899690	1449.842419	20.150000	-6.600000
	186.999696	1449.847480	20.164000	-6.560000
	187.099702	1449.850011	20.162000	-6.580000
	187.199708	1449.844950	20.158000	-6.640000
	187.299713	1449.844950	20.158000	-6.640000
	187.349716	1449.837359	20.156000	-6.660000
	187.499724	1449.831033	20.054000	-6.650000
	187.599730	1449.834829	20.128000	-6.570000
	187.699736	1449.847481	20.166000	-6.500000
	187.799742	1449.837360	20.214000	-6.680000
	187.902748	1449.833564	20.160000	-6.630000
	187.999753	1449.834830	20.160000	-6.590000
	188.099759	1449.839891	20.038000	-6.560000
	188.200765	1449.852543	20.056000	-6.500000
	188.306771	1449.851278	20.044000	-6.610000
	188.399776	1449.855074	20.082000	-6.570000
	188.499782	1449.858870	20.054000	-6.570000
	188.599787	1449.851278	20.012000	-6.660000
	188.699793	1449.858870	20.010000	-6.540000
	188.799799	1449.871523	19.984000	-6.500000
	188.899805	1449.881645	19.986000	-6.520000
	188.999810	1449.884176	20.068000	-6.580000
	189.149819	1449.884176	20.068000	-6.580000
	189.249825	1449.872789	20.068000	-6.690000
	189.349830	1449.860137	20.032000	-6.700000
	189.449836	1449.866463	20.062000	-6.550000
	189.549842	1449.868994	20.064000	-6.580000
	189.648848	1449.867729	20.098000	-6.610000
	189.748853	1449.861402	20.000000	-6.650000
	189.848859	1449.866463	19.980000	-6.560000
	189.948864	1449.877851	19.994000	-6.510000
	190.048871	1449.885443	20.030000	-6.540000
	190.098873	1449.886708	20.012000	-6.590000
	190.248882	1449.886708	20.012000	-6.590000
	190.348887	1449.877852	20.026000	-6.670000
	190.448893	1449.887974	20.048000	-6.520000
	190.548899	1449.889239	20.058000	-6.590000
	190.648905	1449.891770	20.076000	-6.580000
	190.748910	1449.884178	20.092000	-6.660000
	190.848916	1449.882913	20.076000	-6.610000
	190.948922	1449.876587	20.078000	-6.650000
	191.048928	1449.872791	20.042000	-6.630000
	191.148933	1449.874057	20.060000	-6.590000
	191.248939	1449.877852	20.078000	-6.570000
	191.348945	1449.876587	20.086000	-6.610000
	191.448950	1449.876587	20.002000	-6.600000
	191.548956	1449.876587	20.004000	-6.600000
	191.648962	1449.872791	19.946000	-6.630000
	191.748968	1449.884179	20.016000	-6.510000
	191.848973	1449.884179	20.040000	-6.600000
	191.948979	1449.882914	19.986000	-6.610000
	192.048985	1449.882914	19.986000	-6.610000
	192.148991	1449.875322	19.940000	-6.660000
	192.248996	1449.877853	19.902000	-6.580000
	192.349002	1449.882914	19.956000	-6.560000
	192.449008	1449.891771	19.978000	-6.530000
	192.549013	1449.884180	19.932000	-6.660000
	192.649019	1449.881649	19.962000	-6.620000
	192.749025	1449.881649	19.958000	-6.600000
	192.849030	1449.885445	19.966000	-6.570000
	192.949036	1449.894302	20.008000	-6.530000
	193.049042	1449.901894	19.996000	-6.540000
	193.149048	1449.906955	19.982000	-6.560000
	193.249053	1449.901894	19.962000	-6.640000
	193.349059	1449.900629	19.920000	-6.610000
	193.450065	1449.900629	19.922000	-6.600000
	193.549070	1449.913282	19.930000	-6.500000
	193.649076	1449.912017	19.924000	-6.610000
	193.749082	1449.912017	19.924000	-6.610000
	193.849088	1449.912017	19.912000	-6.600000
	193.949093	1449.913282	19.882000	-6.590000
	194.049099	1449.928467	19.882000	-6.480000
	194.149105	1449.928467	19.892000	-6.600000
	194.249111	1449.927201	19.942000	-6.610000
	194.349116	1449.919610	19.944000	-6.660000
	194.449122	1449.922140	19.908000	-6.580000
	194.549128	1449.920875	19.946000	-6.610000
	194.649134	1449.933529	19.964000	-6.500000
	194.749139	1449.934794	19.930000	-6.590000
	194.849145	1449.933529	19.942000	-6.610000
	194.949151	1449.932263	19.936000	-6.610000
	195.049156	1449.937325	19.922000	-6.560000
	195.155162	1449.936059	19.934000	-6.610000
	195.249168	1449.941121	19.940000	-6.560000
	195.349174	1449.928468	19.968000	-6.700000
	195.449179	1449.919611	19.952000	-6.670000
	195.549185	1449.913285	19.976000	-6.650000
	195.649190	1449.922142	19.968000	-6.530000
	195.749197	1449.925938	19.958000	-6.570000
	195.849202	1449.928469	19.948000	-6.580000
	195.999211	1449.932265	19.964000	-6.570000
	196.099216	1449.930999	19.948000	-6.610000
	196.199222	1449.937326	19.926000	-6.550000
	196.299228	1449.936061	19.920000	-6.610000
	196.399233	1449.944918	19.944000	-6.530000
	196.499239	1449.942387	19.930000	-6.620000
	196.599245	1449.941122	19.942000	-6.610000
	196.749254	1450.099398	20.046000	-5.350000
	196.849259	1450.120912	19.760000	-6.430000
	196.949265	1450.138630	19.792000	-6.460000
	197.049271	1450.139895	19.792000	-6.590000
	197.149276	1450.139895	19.792000	-6.590000
	197.249282	1450.146223	19.794000	-6.550000
	197.349288	1450.153816	19.756000	-6.540000
	197.449294	1450.165206	19.768000	-6.510000
	197.549299	1450.166471	19.816000	-6.590000
	197.649305	1450.163940	19.810000	-6.620000
	197.749311	1450.162675	19.726000	-6.610000
	197.849317	1450.170268	19.756000	-6.540000
	197.949322	1450.181658	19.716000	-6.510000
	198.049328	1450.189251	19.776000	-6.540000
	198.149333	1450.185455	19.796000	-6.630000
	198.249340	1450.176597	19.774000	-6.670000
	198.357346	1450.172800	19.736000	-6.630000
	198.449351	1450.182924	19.722000	-6.520000
	198.549356	1450.185456	19.718000	-6.580000
	198.649362	1450.190518	19.756000	-6.560000
	198.749368	1450.180394	19.716000	-6.680000
	198.849374	1450.180394	19.716000	-6.680000
	198.954380	1450.181659	19.734000	-6.590000
	199.049385	1450.182925	19.738000	-6.590000
	199.149391	1450.187987	19.752000	-6.560000
	199.249396	1450.190518	19.702000	-6.580000
	199.349402	1450.187987	19.702000	-6.620000
	199.449408	1450.180394	19.692000	-6.660000
	199.549414	1450.174067	19.680000	-6.650000
	199.649419	1450.190519	19.726000	-6.470000
	199.749425	1450.194316	19.702000	-6.570000
	199.849431	1450.189254	19.744000	-6.640000
	199.952437	1450.176599	19.726000	-6.700000
	200.049442	1450.184193	19.752000	-6.540000
	200.149448	1450.186724	19.758000	-6.580000
	200.249454	1450.193051	19.778000	-6.550000
	200.349460	1450.187989	19.776000	-6.640000
	200.449465	1450.181662	19.780000	-6.650000
	200.549471	1450.185458	19.686000	-6.570000
	200.649477	1450.185458	19.686000	-6.570000
	200.749482	1450.180396	19.704000	-6.640000
	200.858489	1450.200646	19.722000	-6.440000
	200.949494	1450.208240	19.698000	-6.540000
	201.049500	1450.214568	19.736000	-6.550000
	201.199508	1450.201913	19.746000	-6.700000
	201.299514	1450.199381	19.692000	-6.620000
	201.399519	1450.198116	19.760000	-6.610000
	201.499525	1450.196850	19.674000	-6.610000
	201.599531	1450.206975	19.666000	-6.520000
	201.699537	1450.203178	19.722000	-6.630000
	201.799542	1450.203178	19.728000	-6.600000
	201.899548	1450.201913	19.672000	-6.610000
	201.999554	1450.204444	19.662000	-6.580000
	202.099560	1450.217100	19.716000	-6.500000
	202.199565	1450.218366	19.722000	-6.590000
	202.299571	1450.215835	19.734000	-6.620000
	202.404577	1450.213303	19.678000	-6.620000
	202.499582	1450.219631	19.720000	-6.550000
	202.599588	1450.204445	19.684000	-6.720000
	202.699594	1450.204445	19.698000	-6.600000
	202.799600	1450.209508	19.722000	-6.560000
	202.899605	1450.215836	19.720000	-6.550000
	202.999611	1450.206977	19.752000	-6.670000
	203.099617	1450.196853	19.710000	-6.680000
	203.249625	1450.198118	19.802000	-6.590000
	203.349631	1450.200650	19.728000	-6.580000
	203.449637	1450.203181	19.730000	-6.580000
	203.549643	1450.206977	19.786000	-6.570000
	203.649648	1450.206977	19.742000	-6.600000
	203.749654	1450.198119	19.800000	-6.670000
	203.849659	1450.190526	19.740000	-6.660000
	203.999668	1450.190526	19.740000	-6.660000
	204.099674	1450.195588	19.756000	-6.560000
	204.199680	1450.209510	19.726000	-6.490000
	204.249682	1450.212041	19.732000	-6.560000
	204.399691	1450.219634	19.686000	-6.540000
	204.505697	1450.212041	19.706000	-6.660000
	204.599702	1450.210776	19.716000	-6.610000
	204.699708	1450.218369	19.706000	-6.540000
	204.849717	1450.218369	19.680000	-6.600000
	204.952723	1450.232291	19.716000	-6.490000
	205.049728	1450.234822	19.722000	-6.580000
	205.149734	1450.227229	19.740000	-6.660000
	205.249740	1450.213308	19.722000	-6.710000
	205.349745	1450.210777	19.726000	-6.620000
	205.499754	1450.206981	19.716000	-6.630000
	205.599760	1450.213308	19.726000	-6.550000
	205.699766	1450.210777	19.718000	-6.620000
	205.799771	1450.213308	19.728000	-6.580000
	205.899777	1450.208246	19.732000	-6.640000
	205.999783	1450.210777	19.734000	-6.580000
	206.099788	1450.210777	19.734000	-6.580000
	206.199794	1450.219637	19.730000	-6.530000
	206.299800	1450.227230	19.710000	-6.540000
	206.399806	1450.236089	19.756000	-6.530000
	206.499811	1450.244949	19.746000	-6.530000
	206.599817	1450.244949	19.772000	-6.600000
	206.699823	1450.237355	19.822000	-6.660000
	206.799829	1450.227231	19.768000	-6.680000
	206.899834	1450.218372	19.756000	-6.670000
	206.999840	1450.223435	19.728000	-6.560000
	207.104846	1450.224700	19.748000	-6.590000
	207.198851	1450.232294	19.704000	-6.540000
	207.298857	1450.234825	19.750000	-6.580000
	207.398863	1450.239887	19.730000	-6.560000
	207.498868	1450.236091	19.768000	-6.630000
	207.598874	1450.241153	19.752000	-6.560000
	207.698880	1450.242419	19.716000	-6.590000
	207.798885	1450.242419	19.716000	-6.590000
	207.898891	1450.244950	19.762000	-6.580000
	207.998897	1450.241153	19.802000	-6.630000
	208.098903	1450.239888	19.804000	-6.610000
	208.198908	1450.227232	19.830000	-6.700000
	208.298914	1450.227232	19.786000	-6.600000
	208.398920	1450.234826	19.744000	-6.540000
	208.498926	1450.232295	19.780000	-6.620000
	208.598931	1450.234826	19.784000	-6.580000
	208.703938	1450.236092	19.796000	-6.590000
	208.798943	1450.231029	19.804000	-6.640000
	208.898949	1450.225967	19.836000	-6.640000
	208.998954	1450.218374	19.764000	-6.660000
	209.098960	1450.217109	19.760000	-6.610000
	209.198966	1450.227233	19.786000	-6.520000
	209.298971	1450.236093	19.788000	-6.530000
	209.398977	1450.237358	19.834000	-6.590000
	209.548985	1450.237358	19.834000	-6.590000
	209.648992	1450.236093	19.800000	-6.610000
	209.748997	1450.227234	19.752000	-6.670000
	209.849003	1450.223437	19.770000	-6.630000
	209.949008	1450.224703	19.794000	-6.590000
	210.049014	1450.227234	19.770000	-6.580000
	210.149020	1450.231031	19.756000	-6.570000
	210.249026	1450.239890	19.754000	-6.530000
	210.349031	1450.246218	19.756000	-6.550000
	210.449037	1450.246218	19.744000	-6.600000
	210.549043	1450.239890	19.762000	-6.650000
	210.649048	1450.246218	19.752000	-6.550000
	210.749054	1450.234828	19.742000	-6.690000
	210.849060	1450.237359	19.756000	-6.580000
	210.949066	1450.244953	19.750000	-6.540000
	211.049071	1450.242422	19.784000	-6.620000
	211.099074	1450.247484	19.784000	-6.560000
	211.249083	1450.247484	19.784000	-6.560000
	211.349089	1450.246219	19.780000	-6.610000
	211.449094	1450.237360	19.762000	-6.670000
	211.549100	1450.236094	19.736000	-6.610000
	211.649106	1450.227236	19.696000	-6.670000
	211.749112	1450.238626	19.742000	-6.510000
	211.849117	1450.242423	19.708000	-6.570000
	211.949123	1450.248751	19.740000	-6.550000
	212.049129	1450.251282	19.742000	-6.580000
	212.149134	1450.244954	19.778000	-6.650000
	212.249140	1450.247486	19.750000	-6.580000
	212.351146	1450.247486	19.716000	-6.600000
	212.449152	1450.237361	19.722000	-6.680000
	212.549157	1450.239892	19.726000	-6.580000
	212.649163	1450.246220	19.756000	-6.550000
	212.750169	1450.256345	19.770000	-6.520000
	212.849174	1450.256345	19.792000	-6.600000
	212.949180	1450.252549	19.784000	-6.630000
	213.049186	1450.252549	19.784000	-6.630000
	213.149191	1450.252549	19.780000	-6.600000
	213.249197	1450.238628	19.782000	-6.710000
	213.349203	1450.236097	19.794000	-6.620000
	213.449209	1450.238628	19.732000	-6.580000
	213.549214	1450.239894	19.748000	-6.590000
	213.649220	1450.236097	19.756000	-6.630000
	213.749226	1450.238628	19.734000	-6.580000
	213.849232	1450.244956	19.712000	-6.550000
	213.949237	1450.246222	19.750000	-6.590000
	214.049243	1450.237363	19.746000	-6.670000
	214.154249	1450.242425	19.784000	-6.560000
	214.249255	1450.229770	19.728000	-6.700000
	214.349260	1450.232301	19.740000	-6.580000
	214.449266	1450.233567	19.696000	-6.590000
	214.549272	1450.236098	19.716000	-6.580000
	214.649277	1450.237363	19.726000	-6.590000
	214.749283	1450.246223	19.716000	-6.530000
	214.849289	1450.246223	19.716000	-6.530000
	214.949295	1450.248754	19.764000	-6.580000
	215.049300	1450.255082	19.758000	-6.550000
	215.149306	1450.243692	19.760000	-6.690000
	215.249312	1450.232302	19.776000	-6.690000
	215.349318	1450.219647	19.714000	-6.700000
	215.449323	1450.227241	19.742000	-6.540000
	215.552329	1450.234834	19.734000	-6.540000
	215.649334	1450.246225	19.708000	-6.510000
	215.749341	1450.247491	19.724000	-6.590000
	215.850346	1450.256350	19.710000	-6.530000
	215.949352	1450.253819	19.786000	-6.620000
	216.055358	1450.253819	19.740000	-6.600000
	216.152363	1450.247491	19.782000	-6.650000
	216.249369	1450.242429	19.790000	-6.640000
	216.399377	1450.241163	19.772000	-6.610000
	216.499383	1450.228508	19.748000	-6.700000
	216.599389	1450.236102	19.732000	-6.540000
	216.699395	1450.228508	19.756000	-6.660000
	216.799400	1450.243696	19.714000	-6.480000
	216.904407	1450.246227	19.788000	-6.580000
	216.999412	1450.250024	19.762000	-6.570000
	217.099418	1450.250024	19.762000	-6.570000
	217.249426	1450.248758	19.730000	-6.610000
	217.349432	1450.248758	19.822000	-6.600000
	217.449438	1450.239899	19.768000	-6.670000
	217.549443	1450.237368	19.794000	-6.620000
	217.649449	1450.223448	19.814000	-6.710000
	217.749455	1450.219651	19.788000	-6.630000
	217.849461	1450.218386	19.778000	-6.610000
	217.949466	1450.222182	19.770000	-6.570000
	218.049472	1450.228510	19.772000	-6.550000
	218.149477	1450.232307	19.770000	-6.570000
	218.249484	1450.239900	19.796000	-6.540000
	218.351489	1450.239900	19.774000	-6.600000
	218.449495	1450.236104	19.856000	-6.630000
	218.499497	1450.227245	19.824000	-6.670000
	218.649506	1450.222183	19.810000	-6.640000
	218.749512	1450.227245	19.794000	-6.560000
	218.849518	1450.227245	19.788000	-6.600000
	218.949523	1450.224714	19.756000	-6.620000
	219.049529	1450.218386	19.760000	-6.650000
	219.151535	1450.231043	19.790000	-6.500000
	219.249540	1450.231043	19.790000	-6.500000
	219.349546	1450.250027	19.778000	-6.450000
	219.449552	1450.250027	19.788000	-6.600000
	219.549558	1450.255090	19.800000	-6.560000
	219.649563	1450.255090	19.816000	-6.600000
	219.749569	1450.246231	19.770000	-6.670000
	219.851575	1450.241169	19.752000	-6.640000
	219.949581	1450.238638	19.802000	-6.620000
	220.049586	1450.229779	19.760000	-6.670000
	220.149592	1450.233576	19.734000	-6.570000
	220.249598	1450.229779	19.752000	-6.630000
	220.349604	1450.234841	19.752000	-6.560000
	220.449609	1450.238638	19.776000	-6.570000
	220.599618	1450.242435	19.692000	-6.570000
	220.699624	1450.244966	19.734000	-6.580000
	220.799629	1450.244966	19.710000	-6.600000
	220.899635	1450.244966	19.800000	-6.600000
	220.999640	1450.236107	19.802000	-6.670000
	221.099647	1450.238638	19.826000	-6.580000
	221.199652	1450.231045	19.904000	-6.660000
	221.299658	1450.227248	19.880000	-6.630000
	221.399663	1450.227248	19.880000	-6.630000
	221.499669	1450.215859	19.898000	-6.690000
	221.599675	1450.212062	19.872000	-6.630000
	221.699681	1450.213328	19.870000	-6.590000
	221.799686	1450.213328	19.894000	-6.600000
	221.899692	1450.218390	19.850000	-6.560000
	221.999698	1450.219656	19.836000	-6.590000
	222.105704	1450.229780	19.792000	-6.520000
	222.199709	1450.239905	19.852000	-6.520000
	222.299715	1450.242437	19.838000	-6.580000
	222.399721	1450.243702	19.862000	-6.590000
	222.499726	1450.248764	19.948000	-6.560000
	222.599732	1450.251296	19.932000	-6.580000
	222.699738	1450.242437	19.950000	-6.670000
	222.849746	1450.237375	19.926000	-6.640000
	222.949752	1450.228516	19.944000	-6.670000
	223.049758	1450.231047	19.936000	-6.580000
	223.149764	1450.223454	19.918000	-6.660000
	223.249769	1450.215861	19.958000	-6.660000
	223.349775	1450.212064	19.930000	-6.630000
	223.449781	1450.214595	19.962000	-6.580000
	223.599789	1450.209533	19.874000	-6.640000
	223.699795	1450.209533	19.788000	-6.600000
	223.799801	1450.210799	19.778000	-6.590000
	223.899806	1450.213330	19.748000	-6.580000
	223.999812	1450.213330	19.702000	-6.600000
	224.099818	1450.205737	19.760000	-6.660000
	224.199824	1450.205737	19.760000	-6.660000
	224.299829	1450.217127	19.756000	-6.510000
	224.399835	1450.223455	19.802000	-6.550000
	224.499841	1450.237377	19.786000	-6.490000
	224.598846	1450.246236	19.822000	-6.530000
	224.698852	1450.258892	19.796000	-6.500000
	224.798858	1450.258892	19.720000	-6.600000
	224.898864	1450.266486	19.722000	-6.540000
	224.998869	1450.269017	19.754000	-6.580000
	225.098875	1450.267752	19.714000	-6.610000
	225.205881	1450.255096	19.668000	-6.700000
	225.298887	1450.260159	19.696000	-6.560000
	225.398892	1450.261424	19.702000	-6.590000
	225.498898	1450.251300	19.734000	-6.680000
	225.598904	1450.250034	19.730000	-6.610000
	225.698909	1450.244972	19.742000	-6.640000
	225.798915	1450.244972	19.742000	-6.640000
	225.898921	1450.237379	19.860000	-6.660000
	225.998927	1450.228520	19.818000	-6.670000
	226.098932	1450.231051	19.798000	-6.580000
	226.198938	1450.231051	19.822000	-6.600000
	226.298944	1450.232317	19.850000	-6.590000
	226.398950	1450.236114	19.836000	-6.570000
	226.498955	1450.232317	19.796000	-6.630000
	226.598961	1450.224724	19.852000	-6.660000
	226.698967	1450.224724	19.814000	-6.600000
	226.800972	1450.223458	19.810000	-6.610000
	226.898978	1450.225989	19.806000	-6.580000
	226.998984	1450.237380	19.800000	-6.510000
	227.098989	1450.238645	19.782000	-6.590000
	227.198995	1450.250036	19.778000	-6.510000
	227.299001	1450.260161	19.776000	-6.520000
	227.399007	1450.263958	19.796000	-6.570000
	227.499012	1450.263958	19.796000	-6.570000
	227.599018	1450.263958	19.796000	-6.600000
	227.699024	1450.270286	19.814000	-6.550000
	227.799029	1450.271552	19.806000	-6.590000
	227.899035	1450.269020	19.828000	-6.620000
	227.999041	1450.269020	19.838000	-6.600000
	228.099047	1450.261427	19.826000	-6.660000
	228.199052	1450.257630	19.810000	-6.630000
	228.299058	1450.255099	19.798000	-6.620000
	228.403064	1450.247506	19.822000	-6.660000
	228.499070	1450.242444	19.812000	-6.640000
	228.599075	1450.238647	19.830000	-6.630000
	228.704081	1450.233585	19.810000	-6.640000
	228.799087	1450.227257	19.804000	-6.650000
	228.899093	1450.228523	19.760000	-6.590000
	228.999098	1450.234850	19.770000	-6.550000
	229.099104	1450.239913	19.754000	-6.560000
	229.249113	1450.247506	19.778000	-6.540000
	229.349118	1450.256366	19.778000	-6.530000
	229.449124	1450.257631	19.780000	-6.590000
	229.549129	1450.258897	19.830000	-6.590000
	229.699138	1450.261428	19.844000	-6.580000
	229.799144	1450.251304	19.808000	-6.680000
	229.899149	1450.252569	19.876000	-6.590000
	229.999156	1450.236118	19.854000	-6.730000
	230.149164	1450.232321	19.792000	-6.630000
	230.249170	1450.234852	19.782000	-6.580000
	230.349175	1450.234852	19.782000	-6.580000
	230.449181	1450.241180	19.804000	-6.550000
	230.549187	1450.242446	19.806000	-6.590000
	230.649192	1450.255102	19.846000	-6.500000
	230.749198	1450.258899	19.812000	-6.570000
	230.849204	1450.265227	19.846000	-6.550000
	230.949210	1450.253837	19.846000	-6.690000
	231.058216	1450.241182	19.866000	-6.700000
	231.149221	1450.237385	19.902000	-6.630000
	231.249227	1450.243713	19.914000	-6.550000
	231.349233	1450.243713	19.914000	-6.550000
	231.449238	1450.248775	19.914000	-6.560000
	231.549244	1450.262698	19.874000	-6.490000
	231.649250	1450.275354	19.946000	-6.500000
	231.749256	1450.280417	19.872000	-6.560000
	231.899264	1450.282948	19.892000	-6.580000
	231.999270	1450.286745	19.878000	-6.570000
	232.099276	1450.277886	19.900000	-6.670000
	232.199281	1450.271558	19.856000	-6.650000
	232.299287	1450.255106	19.818000	-6.730000
	232.399292	1450.255106	19.852000	-6.600000
	232.449296	1450.252575	19.808000	-6.620000
	232.599304	1450.257637	19.754000	-6.560000
	232.699310	1450.265231	19.722000	-6.540000
	232.799315	1450.274090	19.790000	-6.530000
	232.899321	1450.277887	19.802000	-6.570000
	233.049330	1450.285481	19.814000	-6.540000
	233.161336	1450.279153	19.812000	-6.650000
	233.249341	1450.274091	19.842000	-6.640000
	233.349347	1450.265232	19.796000	-6.670000
	233.499355	1450.261435	19.840000	-6.630000
	233.599361	1450.262701	19.848000	-6.590000
	233.699367	1450.265232	19.846000	-6.580000
	233.799373	1450.269029	19.882000	-6.570000
	233.949381	1450.279154	19.930000	-6.520000
	234.049387	1450.280419	19.894000	-6.590000
	234.149393	1450.279154	19.924000	-6.610000
	234.249398	1450.266498	19.950000	-6.700000
	234.349404	1450.265233	19.892000	-6.610000
	234.499413	1450.257639	19.878000	-6.660000
	234.599419	1450.260171	19.854000	-6.580000
	234.699424	1450.267764	19.840000	-6.540000
	234.799430	1450.272827	19.884000	-6.560000
	234.949439	1450.276624	19.862000	-6.570000
	235.049444	1450.277889	19.914000	-6.590000
	235.149450	1450.276624	19.878000	-6.610000
	235.249455	1450.276624	19.878000	-6.610000
	235.349462	1450.267765	19.858000	-6.670000
	235.449467	1450.260171	19.844000	-6.660000
	235.549473	1450.256375	19.840000	-6.630000
	235.649478	1450.253843	19.832000	-6.620000
	235.749484	1450.258906	19.832000	-6.560000
	235.849490	1450.265234	19.828000	-6.550000
	235.954496	1450.284219	19.804000	-6.450000
	236.049501	1450.290547	19.818000	-6.550000
	236.149507	1450.284219	19.854000	-6.650000
	236.249513	1450.284219	19.872000	-6.600000
	236.349519	1450.284219	19.860000	-6.600000
	236.449524	1450.281688	19.856000	-6.620000
	236.549530	1450.281688	19.818000	-6.600000
	236.649536	1450.272829	19.838000	-6.670000
	236.749541	1450.261439	19.844000	-6.690000
	236.899550	1450.252580	19.794000	-6.670000
	236.999556	1450.251315	19.748000	-6.610000
	237.099561	1450.255112	19.796000	-6.570000
	237.199567	1450.261440	19.792000	-6.550000
	237.299573	1450.261440	19.792000	-6.550000
	237.399579	1450.275362	19.840000	-6.490000
	237.499584	1450.281690	19.872000	-6.550000
	237.599590	1450.290550	19.880000	-6.530000
	237.699596	1450.303206	19.846000	-6.500000
	237.799602	1450.305738	19.834000	-6.580000
	237.899607	1450.291816	19.806000	-6.710000
	237.999613	1450.279161	19.870000	-6.700000
	238.099618	1450.272833	19.856000	-6.650000
	238.199625	1450.265239	19.822000	-6.660000
	238.307631	1450.255115	19.818000	-6.680000
	238.399636	1450.258912	19.776000	-6.570000
	238.499641	1450.266505	19.724000	-6.540000
	238.599647	1450.267771	19.812000	-6.590000
	238.699653	1450.275365	19.810000	-6.540000
	238.799659	1450.282959	19.812000	-6.540000
	238.899664	1450.290552	19.816000	-6.540000
	238.999670	1450.299412	19.814000	-6.530000
	239.149679	1450.305740	19.824000	-6.550000
	239.249684	1450.305740	19.824000	-6.550000
	239.349690	1450.313334	19.814000	-6.540000
	239.449696	1450.320928	19.834000	-6.540000
	239.549702	1450.310804	19.832000	-6.680000
	239.649707	1450.305741	19.812000	-6.640000
	239.749713	1450.294351	19.864000	-6.690000
	239.849719	1450.285492	19.922000	-6.670000
	239.949725	1450.272836	19.874000	-6.700000
	240.049730	1450.271571	19.898000	-6.610000
	240.149736	1450.272836	19.822000	-6.590000
	240.249742	1450.266508	19.830000	-6.650000
	240.349747	1450.276633	19.750000	-6.520000
	240.449753	1450.279165	19.774000	-6.580000
	240.549759	1450.291821	19.834000	-6.500000
	240.659765	1450.262715	19.822000	-6.830000
	240.749770	1450.285497	19.962000	-6.420000
	240.849776	1450.282966	19.892000	-6.620000
	240.949781	1450.280435	19.830000	-6.620000
	241.049788	1450.282966	19.804000	-6.580000
	241.149793	1450.284232	19.808000	-6.590000
	241.249799	1450.279170	19.816000	-6.640000
	241.399807	1450.285498	19.724000	-6.550000
	241.499813	1450.285498	19.724000	-6.550000
	241.601819	1450.284232	19.758000	-6.610000
	241.699824	1450.285498	19.808000	-6.590000
	241.799830	1450.288029	19.816000	-6.580000
	241.899836	1450.289295	19.800000	-6.590000
	241.999842	1450.291826	19.754000	-6.580000
	242.098847	1450.291826	19.810000	-6.600000
	242.198853	1450.301951	19.770000	-6.520000
	242.298859	1450.298154	19.772000	-6.630000
	242.398865	1450.301951	19.832000	-6.570000
	242.498870	1450.300686	19.850000	-6.610000
	242.598876	1450.296889	19.846000	-6.630000
	242.698882	1450.295623	19.842000	-6.610000
	242.800888	1450.282967	19.890000	-6.700000
	242.898893	1450.282967	19.810000	-6.600000
	242.998899	1450.282967	19.780000	-6.600000
	243.098905	1450.280436	19.836000	-6.620000
	243.198910	1450.280436	19.836000	-6.620000
	243.298916	1450.279171	19.804000	-6.610000
	243.398922	1450.279171	19.770000	-6.600000
	243.498928	1450.293093	19.764000	-6.490000
	243.598933	1450.303218	19.782000	-6.520000
	243.698939	1450.309547	19.848000	-6.550000
	243.798944	1450.318406	19.788000	-6.530000
	243.898951	1450.322203	19.786000	-6.570000
	243.998956	1450.320938	19.748000	-6.610000
	244.098962	1450.326000	19.724000	-6.560000
	244.198967	1450.329797	19.696000	-6.570000
	244.298973	1450.324735	19.796000	-6.640000
	244.398979	1450.322204	19.824000	-6.620000
	244.502985	1450.314610	19.788000	-6.660000
	244.598990	1450.310813	19.762000	-6.630000
	244.698996	1450.301954	19.686000	-6.670000
	244.799002	1450.301954	19.700000	-6.600000
	244.899007	1450.301954	19.700000	-6.600000
	244.999013	1450.301954	19.784000	-6.600000
	245.099019	1450.293095	19.776000	-6.670000
	245.199025	1450.305751	19.766000	-6.500000
	245.299030	1450.310814	19.740000	-6.560000
	245.399036	1450.320940	19.818000	-6.520000
	245.499042	1450.318408	19.806000	-6.620000
	245.599048	1450.323471	19.810000	-6.560000
	245.699053	1450.334862	19.806000	-6.510000
	245.799059	1450.343722	19.740000	-6.530000
	245.899065	1450.352582	19.714000	-6.530000
	245.999071	1450.346254	19.708000	-6.650000
	246.105076	1450.342457	19.782000	-6.630000
	246.199082	1450.342457	19.734000	-6.600000
	246.299088	1450.326004	19.724000	-6.730000
	246.399093	1450.320942	19.696000	-6.640000
	246.499099	1450.312082	19.732000	-6.670000
	246.599105	1450.312082	19.732000	-6.670000
	246.699111	1450.305754	19.768000	-6.650000
	246.799116	1450.303223	19.730000	-6.620000
	246.899122	1450.308286	19.760000	-6.560000
	246.999128	1450.304489	19.714000	-6.630000
	247.099133	1450.303223	19.690000	-6.610000
	247.199139	1450.312083	19.718000	-6.530000
	247.299145	1450.326006	19.746000	-6.490000
	247.399150	1450.341194	19.726000	-6.480000
	247.499156	1450.347523	19.716000	-6.550000
	247.604162	1450.346257	19.740000	-6.610000
	247.699168	1450.353851	19.748000	-6.540000
	247.799173	1450.358914	19.778000	-6.560000
	247.899179	1450.361445	19.720000	-6.580000
	247.999185	1450.347523	19.692000	-6.710000
	248.099191	1450.339930	19.702000	-6.660000
	248.199196	1450.332336	19.684000	-6.660000
	248.299202	1450.329805	19.702000	-6.620000
	248.399208	1450.329805	19.702000	-6.620000
	248.499213	1450.331070	19.674000	-6.590000
	248.599219	1450.331070	19.682000	-6.600000
	248.699225	1450.327273	19.670000	-6.630000
	248.799231	1450.323476	19.646000	-6.630000
	248.899236	1450.320945	19.666000	-6.620000
	248.999242	1450.324742	19.696000	-6.570000
	249.099248	1450.332336	19.648000	-6.540000
	249.199254	1450.329805	19.662000	-6.620000
	249.307260	1450.334868	19.684000	-6.560000
	249.399265	1450.350056	19.676000	-6.480000
	249.499270	1450.358916	19.692000	-6.530000
	249.599277	1450.357651	19.686000	-6.610000
	249.699282	1450.350057	19.700000	-6.660000
	249.799288	1450.351322	19.652000	-6.590000
	249.899293	1450.344994	19.680000	-6.650000
	249.999299	1450.347526	19.694000	-6.580000
	250.149308	1450.344994	19.720000	-6.620000
	250.249313	1450.344994	19.720000	-6.620000
	250.349319	1450.334869	19.710000	-6.680000
	250.449325	1450.337401	19.702000	-6.580000
	250.549331	1450.344995	19.714000	-6.540000
	250.649336	1450.343729	19.696000	-6.610000
	250.749342	1450.346260	19.736000	-6.580000
	250.849348	1450.346260	19.708000	-6.600000
	250.899351	1450.351323	19.704000	-6.560000
	251.069360	1450.365246	19.740000	-6.490000
	251.154366	1450.367778	19.716000	-6.580000
	251.249371	1450.369043	19.732000	-6.590000
	251.349377	1450.374106	19.772000	-6.560000
	251.454382	1450.376638	19.756000	-6.580000
	251.549388	1450.366512	19.732000	-6.680000
	251.649394	1450.361450	19.690000	-6.640000
	251.749399	1450.347528	19.740000	-6.710000
	251.849405	1450.343731	19.682000	-6.630000
	251.949411	1450.331075	19.690000	-6.700000
	252.062417	1450.331075	19.728000	-6.600000
	252.149422	1450.329809	19.696000	-6.610000
	252.299431	1450.329809	19.668000	-6.600000
	252.399436	1450.329809	19.668000	-6.600000
	252.499442	1450.341201	19.588000	-6.510000
	252.599448	1450.346263	19.622000	-6.560000
	252.699454	1450.351326	19.698000	-6.560000
	252.799459	1450.347529	19.678000	-6.630000
	252.899465	1450.355123	19.706000	-6.540000
	252.999471	1450.350061	19.772000	-6.640000
	253.099477	1450.346264	19.686000	-6.630000
	253.199482	1450.343732	19.692000	-6.620000
	253.299488	1450.342467	19.644000	-6.610000
	253.399494	1450.337404	19.664000	-6.640000
	253.499499	1450.336139	19.686000	-6.610000
	253.599505	1450.333607	19.626000	-6.620000
	253.703511	1450.331076	19.624000	-6.620000
	253.799517	1450.331076	19.674000	-6.600000
	253.899522	1450.333607	19.690000	-6.580000
	253.999528	1450.346264	19.632000	-6.500000
	254.099534	1450.352593	19.668000	-6.550000
	254.199540	1450.352593	19.656000	-6.600000
	254.299545	1450.358921	19.744000	-6.550000
	254.399551	1450.358921	19.744000	-6.550000
	254.499557	1450.367781	19.698000	-6.530000
	254.599563	1450.361453	19.730000	-6.650000
	254.699568	1450.360187	19.672000	-6.610000
	254.799574	1450.347531	19.682000	-6.700000
	254.899580	1450.348797	19.700000	-6.590000
	254.999585	1450.343734	19.706000	-6.640000
	255.099591	1450.338672	19.740000	-6.640000
	255.200597	1450.342469	19.628000	-6.570000
	255.299603	1450.352594	19.686000	-6.520000
	255.399608	1450.353860	19.698000	-6.590000
	255.499614	1450.357657	19.660000	-6.570000
	255.599620	1450.363986	19.686000	-6.550000
	255.699625	1450.371580	19.704000	-6.540000
	255.799631	1450.377909	19.710000	-6.550000
	255.899637	1450.381706	19.722000	-6.570000
	255.999642	1450.372846	19.738000	-6.670000
	256.149651	1450.367783	19.752000	-6.640000
	256.249657	1450.356393	19.728000	-6.690000
	256.349663	1450.346268	19.728000	-6.680000
	256.449668	1450.342471	19.730000	-6.630000
	256.549674	1450.342471	19.730000	-6.630000
	256.649680	1450.336142	19.690000	-6.650000
	256.749685	1450.337408	19.744000	-6.590000
	256.849691	1450.345002	19.758000	-6.540000
	256.949697	1450.350065	19.778000	-6.560000
	257.049703	1450.357659	19.768000	-6.540000
	257.149708	1450.355128	19.788000	-6.620000
	257.249714	1450.350065	19.794000	-6.640000
	257.354720	1450.345003	19.752000	-6.640000
	257.449726	1450.342471	19.760000	-6.620000
	257.549731	1450.334878	19.768000	-6.660000
	257.649737	1450.333612	19.802000	-6.610000
	257.749743	1450.334878	19.758000	-6.590000
	257.849748	1450.333612	19.766000	-6.610000
	257.949754	1450.329815	19.700000	-6.630000
	258.049760	1450.329815	19.700000	-6.630000
	258.149765	1450.333612	19.744000	-6.570000
	258.249771	1450.345003	19.758000	-6.510000
	258.349777	1450.352598	19.710000	-6.540000
	258.449783	1450.366521	19.738000	-6.490000
	258.549788	1450.377912	19.684000	-6.510000
	258.649794	1450.385507	19.738000	-6.540000
	258.749800	1450.376647	19.706000	-6.670000
	258.849805	1450.370319	19.792000	-6.650000
	258.952811	1450.365256	19.772000	-6.640000
	259.049817	1450.358928	19.780000	-6.650000
	259.149823	1450.348803	19.738000	-6.680000
	259.249828	1450.347537	19.732000	-6.610000
	259.349834	1450.346271	19.728000	-6.610000
	259.449840	1450.350068	19.722000	-6.570000
	259.548845	1450.353865	19.686000	-6.570000
	259.648851	1450.362725	19.758000	-6.530000
	259.798860	1450.363991	19.702000	-6.590000
	259.898866	1450.375383	19.714000	-6.510000
	259.998871	1450.380446	19.706000	-6.560000
	260.098877	1450.380446	19.706000	-6.560000
	260.198883	1450.388040	19.760000	-6.540000
	260.298888	1450.388040	19.760000	-6.600000
	260.398894	1450.380446	19.692000	-6.660000
	260.498900	1450.369055	19.724000	-6.690000
	260.598906	1450.361461	19.748000	-6.660000
	260.698911	1450.350071	19.732000	-6.690000
	260.798917	1450.345008	19.716000	-6.640000
	260.898923	1450.346274	19.690000	-6.590000
	260.998929	1450.352602	19.702000	-6.550000
	261.109935	1450.356399	19.716000	-6.570000
	261.248943	1450.361462	19.688000	-6.560000
	261.348948	1450.369056	19.702000	-6.540000
	261.448954	1450.377916	19.670000	-6.530000
	261.548960	1450.385511	19.720000	-6.540000
	261.648966	1450.381714	19.746000	-6.630000
	261.748971	1450.381714	19.692000	-6.600000
	261.848977	1450.377917	19.716000	-6.630000
	261.948983	1450.374120	19.718000	-6.630000
	262.048988	1450.366526	19.698000	-6.660000
	262.149994	1450.358932	19.716000	-6.660000
	262.249000	1450.358932	19.716000	-6.660000
	262.349006	1450.357666	19.678000	-6.610000
	262.449011	1450.357666	19.680000	-6.600000
	262.549017	1450.365260	19.668000	-6.540000
	262.649023	1450.374120	19.670000	-6.530000
	262.749029	1450.382980	19.692000	-6.530000
	262.849034	1450.388043	19.678000	-6.560000
	262.949040	1450.382981	19.696000	-6.640000
	263.049046	1450.390575	19.684000	-6.540000
	263.149052	1450.391841	19.726000	-6.590000
	263.249057	1450.380450	19.776000	-6.690000
	263.349063	1450.374121	19.728000	-6.650000
	263.449069	1450.376653	19.746000	-6.580000
	263.549074	1450.375387	19.700000	-6.610000
	263.649080	1450.377919	19.662000	-6.580000
	263.749086	1450.376653	19.698000	-6.610000
	263.852092	1450.381716	19.684000	-6.560000
	263.949097	1450.379184	19.708000	-6.620000
	264.049103	1450.374122	19.694000	-6.640000
	264.149109	1450.386779	19.668000	-6.500000
	264.249115	1450.399437	19.672000	-6.500000
	264.349120	1450.396905	19.702000	-6.620000
	264.449126	1450.396905	19.738000	-6.600000
	264.549131	1450.389311	19.758000	-6.660000
	264.699140	1450.386780	19.762000	-6.620000
	264.799146	1450.380451	19.750000	-6.650000
	264.899151	1450.372858	19.784000	-6.660000
	264.999157	1450.374123	19.796000	-6.590000
	265.099163	1450.475420	18.670000	-5.800000
	265.199169	1450.414674	20.020000	-7.080000
	265.299174	1450.370380	20.014000	-6.950000
	265.399180	1450.338741	19.950000	-6.850000
	265.549189	1450.308368	19.952000	-6.840000
	265.649194	1450.284323	19.950000	-6.790000
	265.749200	1450.284323	19.950000	-6.790000
	265.849206	1450.264075	19.978000	-6.760000
	265.949212	1450.256481	19.978000	-6.660000
	266.049217	1450.255216	20.012000	-6.610000
	266.149223	1450.246357	19.978000	-6.670000
	266.249229	1450.240029	19.926000	-6.650000
	266.349235	1450.242560	19.932000	-6.580000
	266.449240	1450.232436	19.998000	-6.680000
	266.549246	1450.221047	19.984000	-6.690000
	266.649251	1450.203330	19.986000	-6.740000
	266.749258	1450.190675	19.940000	-6.700000
	266.849263	1450.181816	19.954000	-6.670000
	266.951269	1450.167896	19.896000	-6.710000
	267.049274	1450.162834	19.910000	-6.640000
	267.149280	1450.150180	19.866000	-6.700000
	267.249286	1450.153976	19.872000	-6.570000
	267.349292	1450.150180	19.856000	-6.630000
	267.449297	1450.150180	19.856000	-6.630000
	267.549303	1450.147649	19.866000	-6.620000
	267.649309	1450.148915	19.852000	-6.590000
	267.749315	1450.156508	19.860000	-6.540000
	267.849320	1450.169163	19.834000	-6.500000
	267.949326	1450.170429	19.878000	-6.590000
	268.049332	1450.169163	19.868000	-6.610000
	268.149337	1450.170429	19.810000	-6.590000
	268.249343	1450.174225	19.822000	-6.570000
	268.349349	1450.186881	19.932000	-6.500000
	268.449355	1450.199537	19.834000	-6.500000
	268.549360	1450.202068	19.820000	-6.580000
	268.650366	1450.209661	19.842000	-6.540000
	268.749372	1450.209661	19.846000	-6.600000
	268.849378	1450.213458	19.864000	-6.570000
	268.949383	1450.207131	19.894000	-6.650000
	269.049389	1450.194476	19.886000	-6.700000
	269.149395	1450.183086	19.878000	-6.690000
	269.249400	1450.183086	19.878000	-6.690000
	269.349406	1450.180555	19.910000	-6.620000
	269.449412	1450.176759	19.918000	-6.630000
	269.549417	1450.169166	19.906000	-6.660000
	269.649423	1450.172962	19.906000	-6.570000
	269.749429	1450.174228	19.916000	-6.590000
	269.849435	1450.180556	19.910000	-6.550000
	269.949440	1450.178025	19.892000	-6.620000
	270.049446	1450.171697	19.944000	-6.650000
	270.149452	1450.175494	19.934000	-6.570000
	270.249457	1450.183087	19.912000	-6.540000
	270.354464	1450.184353	19.890000	-6.590000
	270.449469	1450.186884	19.906000	-6.580000
	270.549475	1450.188149	19.922000	-6.590000
	270.649480	1450.193211	19.966000	-6.560000
	270.749486	1450.198274	19.930000	-6.560000
	270.849492	1450.200805	20.006000	-6.580000
	270.949498	1450.200805	20.006000	-6.580000
	271.049503	1450.213461	19.990000	-6.500000
	271.149509	1450.224851	19.994000	-6.510000
	271.249515	1450.229913	19.964000	-6.560000
	271.349521	1450.228648	19.998000	-6.610000
	271.449526	1450.226117	19.974000	-6.620000
	271.549532	1450.221055	19.996000	-6.640000
	271.649538	1450.210930	19.990000	-6.680000
	271.749543	1450.212196	19.978000	-6.590000
	271.849549	1450.207134	19.986000	-6.640000
	271.954555	1450.203337	20.014000	-6.630000
	272.049561	1450.202072	20.050000	-6.610000
	272.149566	1450.191948	19.996000	-6.680000
	272.249572	1450.194479	19.992000	-6.580000
	272.355578	1450.188151	19.968000	-6.650000
	272.449584	1450.184355	19.928000	-6.630000
	272.549589	1450.184355	20.000000	-6.600000
	272.649595	1450.174231	19.934000	-6.680000
	272.749600	1450.171700	19.926000	-6.620000
	272.899609	1450.167903	19.942000	-6.630000
	272.999615	1450.178028	20.010000	-6.520000
	273.099620	1450.170435	20.038000	-6.660000
	273.199626	1450.167904	19.988000	-6.620000
	273.299632	1450.170435	19.944000	-6.580000
	273.399638	1450.171701	19.916000	-6.590000
	273.499643	1450.174232	19.804000	-6.580000
	273.649652	1450.181825	19.906000	-6.540000
	273.749658	1450.174232	19.956000	-6.660000
	273.849663	1450.175497	19.854000	-6.590000
	273.949669	1450.166639	19.796000	-6.670000
	274.049675	1450.166639	19.796000	-6.670000
	274.149681	1450.169170	19.832000	-6.580000
	274.249686	1450.174232	19.840000	-6.560000
	274.349692	1450.176763	19.888000	-6.580000
	274.449698	1450.189419	19.772000	-6.500000
	274.549704	1450.194481	19.830000	-6.560000
	274.649709	1450.195747	19.896000	-6.590000
	274.749715	1450.198278	19.852000	-6.580000
	274.849720	1450.203340	19.794000	-6.560000
	274.949727	1450.202075	19.806000	-6.610000
	275.049732	1450.200809	19.830000	-6.610000
	275.149738	1450.199544	19.846000	-6.610000
	275.252744	1450.198278	19.990000	-6.610000
	275.349749	1450.202075	19.996000	-6.570000
	275.449755	1450.207137	19.976000	-6.560000
	275.549761	1450.213465	19.910000	-6.550000
	275.649766	1450.212199	19.960000	-6.610000
	275.749772	1450.245108	19.888000	-6.340000
	275.849778	1450.245108	19.888000	-6.340000
	275.949783	1450.240045	19.888000	-6.640000
	276.049789	1450.151478	20.344000	-7.300000
	276.149795	1450.185650	19.740000	-6.330000
	276.257801	1450.245144	19.910000	-6.130000
	276.349806	1450.237550	19.890000	-6.660000
	276.449812	1450.222364	19.772000	-6.720000
	276.549818	1450.219833	19.890000	-6.620000
	276.649824	1450.229958	19.906000	-6.520000
	276.749829	1450.222365	19.884000	-6.660000
	276.852835	1450.219834	19.968000	-6.620000
	276.949841	1450.202117	19.976000	-6.740000
	277.048846	1450.193259	19.940000	-6.670000
	277.148852	1450.175542	19.972000	-6.740000
	277.249858	1450.122399	20.120000	-7.020000
	277.350864	1449.997159	20.154000	-7.590000
	277.448869	1449.997159	20.154000	-7.590000
	277.548875	1449.835257	20.224000	-7.880000
	277.648881	1449.683487	20.388000	-7.800000
	277.748887	1449.367360	20.474000	-9.100000
	277.848892	1449.235864	20.618000	-7.640000
	277.948898	1449.101853	20.434000	-7.660000
	278.048903	1448.994396	20.428000	-7.450000
	278.148910	1448.898321	20.458000	-7.360000
	278.248915	1448.808572	20.498000	-7.310000
	278.348921	1448.732730	20.548000	-7.200000
	278.451927	1448.674584	20.426000	-7.060000
	278.548932	1448.634135	20.432000	-6.920000
	278.648938	1448.607589	20.376000	-6.810000
	278.748944	1448.584836	20.382000	-6.780000
	278.848949	1448.572196	20.390000	-6.700000
	278.948955	1448.546915	20.488000	-6.800000
	279.048961	1448.526691	20.500000	-6.760000
	279.148966	1448.507731	20.356000	-6.750000
	279.248972	1448.493827	20.448000	-6.710000
	279.348978	1448.495091	20.386000	-6.590000
	279.498987	1448.502676	20.344000	-6.540000
	279.598992	1448.498884	20.434000	-6.630000
	279.698998	1448.498884	20.430000	-6.600000
	279.799004	1448.492564	20.480000	-6.650000
	279.899009	1448.493828	20.460000	-6.590000
	279.999015	1448.503940	20.426000	-6.520000
	280.149024	1448.508997	20.470000	-6.560000
	280.249030	1448.519110	20.466000	-6.520000
	280.349035	1448.520374	20.452000	-6.590000
	280.449041	1448.516581	20.500000	-6.630000
	280.549047	1448.521638	20.504000	-6.560000
	280.649052	1448.526694	20.426000	-6.560000
	280.749058	1448.526694	20.426000	-6.560000
	280.849064	1448.534279	20.374000	-6.540000
	280.949069	1448.529223	20.334000	-6.640000
	281.049075	1448.529223	20.354000	-6.600000
	281.149081	1448.527959	20.378000	-6.610000
	281.249087	1448.539336	20.436000	-6.510000
	281.352093	1448.544392	20.420000	-6.560000
	281.449098	1448.554505	20.370000	-6.520000
	281.549104	1448.549449	20.330000	-6.640000
	281.649109	1448.538073	20.396000	-6.690000
	281.753116	1448.538073	20.470000	-6.600000
	281.849121	1448.545657	20.436000	-6.540000
	281.949127	1448.551978	20.426000	-6.550000
	282.049132	1448.558299	20.418000	-6.550000
	282.149138	1448.557034	20.462000	-6.610000
	282.249144	1448.550714	20.452000	-6.650000
	282.349150	1448.554506	20.476000	-6.570000
	282.449155	1448.559563	20.428000	-6.560000
	282.599164	1448.570940	20.434000	-6.510000
	282.699170	1448.568412	20.482000	-6.620000
	282.799175	1448.568412	20.482000	-6.620000
	282.899181	1448.567148	20.472000	-6.610000
	282.999187	1448.565884	20.390000	-6.610000
	283.099193	1448.583583	20.382000	-6.460000
	283.199198	1448.591168	20.396000	-6.540000
	283.299204	1448.598753	20.408000	-6.540000
	283.399209	1448.598753	20.448000	-6.600000
	283.499215	1448.593696	20.404000	-6.640000
	283.599221	1448.607602	20.408000	-6.490000
	283.699227	1448.620244	20.384000	-6.500000
	283.799232	1448.621508	20.322000	-6.590000
	283.899238	1448.615188	20.362000	-6.650000
	283.999244	1448.613924	20.336000	-6.610000
	284.099250	1448.616452	20.368000	-6.580000
	284.199255	1448.625301	20.342000	-6.530000
	284.299261	1448.639208	20.354000	-6.490000
	284.399267	1448.641736	20.304000	-6.580000
	284.499272	1448.641736	20.304000	-6.580000
	284.599278	1448.636680	20.288000	-6.640000
	284.699284	1448.629095	20.332000	-6.660000
	284.799290	1448.625302	20.352000	-6.630000
	284.899295	1448.640473	20.406000	-6.480000
	284.999301	1448.646794	20.348000	-6.550000
	285.099307	1448.649322	20.330000	-6.580000
	285.199313	1448.650587	20.412000	-6.590000
	285.299318	1448.645530	20.420000	-6.640000
	285.399324	1448.650587	20.458000	-6.560000
	285.499330	1448.660701	20.448000	-6.520000
	285.599336	1448.659436	20.396000	-6.610000
	285.699341	1448.655644	20.388000	-6.630000
	285.802347	1448.650587	20.402000	-6.640000
	285.899353	1448.654380	20.270000	-6.570000
	285.999358	1448.669551	20.360000	-6.480000
	286.099364	1448.675872	20.342000	-6.550000
	286.199370	1448.670815	20.348000	-6.640000
	286.299376	1448.664494	20.400000	-6.650000
	286.399381	1448.655645	20.384000	-6.670000
	286.499387	1448.663231	20.404000	-6.540000
	286.649395	1448.674609	20.364000	-6.510000
	286.749401	1448.678402	20.344000	-6.570000
	286.849407	1448.673345	20.348000	-6.640000
	286.949413	1448.674609	20.344000	-6.590000
	287.049418	1448.672081	20.398000	-6.620000
	287.149424	1448.689781	20.404000	-6.460000
	287.249430	1448.703688	20.344000	-6.490000
	287.349435	1448.696103	20.352000	-6.660000
	287.499444	1448.691046	20.368000	-6.640000
	287.599450	1448.680932	20.406000	-6.680000
	287.699456	1448.680932	20.410000	-6.600000
	287.799461	1448.687254	20.368000	-6.550000
	287.899467	1448.687254	20.368000	-6.550000
	287.999473	1448.692311	20.312000	-6.560000
	288.099478	1448.687254	20.346000	-6.640000
	288.199484	1448.684725	20.352000	-6.620000
	288.299490	1448.678404	20.408000	-6.650000
	288.399496	1448.682197	20.426000	-6.570000
	288.499501	1448.698633	20.440000	-6.470000
	288.599507	1448.698633	20.404000	-6.600000
	288.699513	1448.692312	20.374000	-6.650000
	288.799519	1448.687255	20.396000	-6.640000
	288.900524	1448.684727	20.400000	-6.620000
	289.006530	1448.697369	20.432000	-6.500000
	289.099535	1448.707483	20.412000	-6.520000
	289.199542	1448.717598	20.396000	-6.520000
	289.299547	1448.708748	20.396000	-6.670000
	289.399553	1448.702427	20.382000	-6.650000
	289.499558	1448.697370	20.418000	-6.640000
	289.599564	1448.697370	20.418000	-6.640000
	289.699570	1448.711278	20.386000	-6.490000
	289.799576	1448.711278	20.370000	-6.600000
	289.899581	1448.704956	20.404000	-6.650000
	289.999587	1448.692315	20.396000	-6.700000
	290.099593	1448.696107	20.460000	-6.570000
	290.199599	1448.702429	20.474000	-6.550000
	290.299604	1448.710014	20.382000	-6.540000
	290.399610	1448.723922	20.404000	-6.490000
	290.499616	1448.720129	20.400000	-6.630000
	290.599621	1448.716336	20.420000	-6.630000
	290.705627	1448.722658	20.398000	-6.550000
	290.799633	1448.722658	20.428000	-6.600000
	290.899639	1448.734036	20.430000	-6.510000
	290.999644	1448.737829	20.404000	-6.570000
	291.099650	1448.745415	20.392000	-6.540000
	291.199656	1448.735301	20.422000	-6.680000
	291.299662	1448.735301	20.422000	-6.680000
	291.399667	1448.726451	20.442000	-6.670000
	291.499673	1448.725187	20.518000	-6.610000
	291.599679	1448.725187	20.496000	-6.600000
	291.699685	1448.744152	20.458000	-6.450000
	291.799690	1448.740360	20.448000	-6.630000
	291.899696	1448.734038	20.400000	-6.650000
	291.999701	1448.728981	20.394000	-6.640000
	292.099707	1448.717604	20.432000	-6.690000
	292.199713	1448.728982	20.432000	-6.510000
	292.303719	1448.734039	20.442000	-6.560000
	292.399724	1448.740361	20.344000	-6.550000
	292.499730	1448.742889	20.354000	-6.580000
	292.599736	1448.741625	20.386000	-6.610000
	292.699742	1448.736568	20.380000	-6.640000
	292.799747	1448.734040	20.418000	-6.620000
	292.899753	1448.744154	20.388000	-6.520000
	292.999759	1448.750475	20.402000	-6.550000
	293.149767	1448.769441	20.376000	-6.450000
	293.249773	1448.765648	20.440000	-6.630000
	293.349779	1448.761855	20.464000	-6.630000
	293.449785	1448.758062	20.448000	-6.630000
	293.549790	1448.755534	20.458000	-6.620000
	293.649796	1448.761855	20.452000	-6.550000
	293.749802	1448.766913	20.456000	-6.560000
	293.849807	1448.769441	20.456000	-6.580000
	293.999816	1448.775763	20.438000	-6.550000
	294.099822	1448.771970	20.462000	-6.630000
	294.199828	1448.765649	20.470000	-6.650000
	294.299833	1448.754271	20.426000	-6.690000
	294.399839	1448.761856	20.444000	-6.540000
	294.499845	1448.769442	20.378000	-6.540000
	294.598850	1448.769442	20.378000	-6.540000
	294.698856	1448.769442	20.356000	-6.600000
	294.798862	1448.775764	20.322000	-6.550000
	294.898868	1448.775764	20.370000	-6.600000
	294.998873	1448.766914	20.358000	-6.670000
	295.098879	1448.764385	20.370000	-6.620000
	295.198884	1448.758064	20.420000	-6.650000
	295.298890	1448.761857	20.374000	-6.570000
	295.398896	1448.779558	20.340000	-6.460000
	295.502902	1448.789673	20.358000	-6.520000
	295.598907	1448.795995	20.370000	-6.550000
	295.698913	1448.783352	20.384000	-6.700000
	295.798919	1448.775766	20.416000	-6.660000
	295.898925	1448.778295	20.406000	-6.580000
	295.998930	1448.782088	20.404000	-6.570000
	296.098936	1448.794732	20.380000	-6.500000
	296.198942	1448.806111	20.382000	-6.510000
	296.298947	1448.809904	20.344000	-6.570000
	296.398953	1448.802318	20.360000	-6.660000
	296.548962	1448.797261	20.380000	-6.640000
	296.648968	1448.787147	20.408000	-6.680000
	296.748973	1448.793468	20.424000	-6.550000
	296.848979	1448.790940	20.424000	-6.620000
	296.948985	1448.801055	20.386000	-6.520000
	297.048990	1448.798526	20.380000	-6.620000
	297.148996	1448.795997	20.402000	-6.620000
	297.299005	1448.794733	20.376000	-6.610000
	297.399011	1448.789676	20.416000	-6.640000
	297.499016	1448.782090	20.420000	-6.660000
	297.599022	1448.779562	20.404000	-6.620000
	297.699028	1448.779562	20.404000	-6.620000
	297.799033	1448.795999	20.420000	-6.470000
	297.899039	1448.811171	20.376000	-6.480000
	297.999045	1448.817493	20.360000	-6.550000
	298.099051	1448.821286	20.370000	-6.570000
	298.199056	1448.816229	20.410000	-6.640000
	298.299062	1448.802322	20.504000	-6.710000
	298.399068	1448.801057	20.440000	-6.610000
	298.499074	1448.796000	20.410000	-6.640000
	298.599079	1448.789679	20.458000	-6.650000
	298.699085	1448.793472	20.460000	-6.570000
	298.799090	1448.799793	20.388000	-6.550000
	298.901096	1448.818759	20.388000	-6.450000
	298.999102	1448.826346	20.384000	-6.540000
	299.099108	1448.828874	20.406000	-6.580000
	299.199113	1448.817496	20.320000	-6.690000
	299.299119	1448.803589	20.350000	-6.710000
	299.399125	1448.799796	20.396000	-6.630000
	299.499131	1448.799796	20.396000	-6.630000
	299.599136	1448.797267	20.358000	-6.620000
	299.699142	1448.803589	20.438000	-6.550000
	299.799148	1448.814968	20.354000	-6.510000
	299.899153	1448.820026	20.498000	-6.560000
	299.999159	1448.830141	20.420000	-6.520000
	300.099165	1448.830141	20.442000	-6.600000
	300.199171	1448.825083	20.410000	-6.640000
	300.299176	1448.809912	20.468000	-6.720000
	300.402182	1448.806119	20.450000	-6.630000
	300.499188	1448.808648	20.482000	-6.580000
	300.599194	1448.814970	20.460000	-6.550000
	300.699199	1448.832671	20.444000	-6.460000
	300.799205	1448.836464	20.450000	-6.570000
	300.899210	1448.840258	20.452000	-6.570000
	300.999217	1448.832672	20.516000	-6.660000
	301.099222	1448.830143	20.520000	-6.620000
	301.199228	1448.818764	20.504000	-6.690000
	301.349236	1448.818764	20.504000	-6.690000
	301.449242	1448.811178	20.530000	-6.660000
	301.549248	1448.806121	20.406000	-6.640000
	301.649253	1448.813707	20.466000	-6.540000
	301.749259	1448.816236	20.496000	-6.580000
	301.849265	1448.822558	20.420000	-6.550000
	301.949271	1448.827615	20.536000	-6.560000
	302.049276	1448.827615	20.558000	-6.600000
	302.149282	1448.825087	20.526000	-6.620000
	302.249288	1448.811180	20.494000	-6.710000
	302.349294	1448.801065	20.568000	-6.680000
	302.449299	1448.796008	20.604000	-6.640000
	302.549305	1448.802330	20.598000	-6.550000
	302.649311	1448.813709	20.604000	-6.510000
	302.699314	1448.835204	20.634000	-6.430000
	302.849322	1448.838997	20.610000	-6.570000
	302.949328	1448.838997	20.582000	-6.600000
	303.049334	1448.838997	20.582000	-6.600000
	303.149339	1448.838997	20.608000	-6.600000
	303.249345	1448.825090	20.632000	-6.710000
	303.349351	1448.823826	20.604000	-6.610000
	303.449357	1448.826355	20.604000	-6.580000
	303.549362	1448.837734	20.608000	-6.510000
	303.649368	1448.844056	20.584000	-6.550000
	303.749373	1448.851642	20.626000	-6.540000
	303.849380	1448.850378	20.560000	-6.610000
	303.949385	1448.851642	20.596000	-6.590000
	304.049391	1448.835207	20.608000	-6.730000
	304.149396	1448.827621	20.624000	-6.660000
	304.249402	1448.825092	20.592000	-6.620000
	304.356408	1448.827621	20.610000	-6.580000
	304.449414	1448.835207	20.638000	-6.540000
	304.549419	1448.835207	20.658000	-6.600000
	304.649425	1448.847851	20.622000	-6.500000
	304.749431	1448.856702	20.634000	-6.530000
	304.849437	1448.859231	20.606000	-6.580000
	304.949442	1448.857966	20.612000	-6.610000
	305.049448	1448.857966	20.612000	-6.610000
	305.149454	1448.852909	20.502000	-6.640000
	305.249459	1448.839001	20.510000	-6.710000
	305.349465	1448.836473	20.574000	-6.620000
	305.449471	1448.830151	20.626000	-6.650000
	305.549477	1448.830151	20.606000	-6.600000
	305.649482	1448.831416	20.660000	-6.590000
	305.749488	1448.840266	20.626000	-6.530000
	305.849494	1448.844059	20.634000	-6.570000
	305.953500	1448.852910	20.636000	-6.530000
	306.049505	1448.857968	20.576000	-6.560000
	306.149511	1448.856703	20.606000	-6.610000
	306.249516	1448.859232	20.664000	-6.580000
	306.349522	1448.861761	20.576000	-6.580000
	306.449528	1448.860496	20.626000	-6.610000
	306.549534	1448.852910	20.596000	-6.660000
	306.699543	1448.852910	20.600000	-6.600000
	306.799548	1448.851646	20.614000	-6.610000
	306.899554	1448.842796	20.608000	-6.670000
	306.999559	1448.842796	20.608000	-6.670000
	307.099565	1448.845324	20.612000	-6.580000
	307.199571	1448.832681	20.606000	-6.700000
	307.299577	1448.826360	20.620000	-6.650000
	307.407583	1448.822567	20.658000	-6.630000
	307.499588	1448.823831	20.630000	-6.590000
	307.599594	1448.831417	20.642000	-6.540000
	307.699600	1448.837739	20.642000	-6.550000
	307.799605	1448.837739	20.610000	-6.600000
	307.905612	1448.837739	20.626000	-6.600000
	307.999617	1448.836475	20.684000	-6.610000
	308.099622	1448.826361	20.668000	-6.680000
	308.199628	1448.826361	20.668000	-6.680000
	308.299634	1448.832682	20.650000	-6.550000
	308.399640	1448.836475	20.652000	-6.570000
	308.499645	1448.842797	20.648000	-6.550000
	308.599651	1448.847855	20.662000	-6.560000
	308.699657	1448.846591	20.696000	-6.610000
	308.799663	1448.846591	20.686000	-6.600000
	308.899668	1448.856706	20.632000	-6.520000
	309.000674	1448.861763	20.642000	-6.560000
	309.099679	1448.871879	20.618000	-6.520000
	309.199686	1448.874407	20.604000	-6.580000
	309.299691	1448.880729	20.614000	-6.550000
	309.399697	1448.881994	20.614000	-6.590000
	309.499702	1448.881994	20.634000	-6.600000
	309.599708	1448.884523	20.614000	-6.580000
	309.699714	1448.899696	20.558000	-6.480000
	309.799720	1448.897167	20.526000	-6.620000
	309.899725	1448.904754	20.504000	-6.540000
	310.049734	1448.908547	20.510000	-6.570000
	310.149740	1448.908547	20.510000	-6.570000
	310.249745	1448.903490	20.514000	-6.640000
	310.349751	1448.894639	20.552000	-6.670000
	310.449757	1448.895903	20.564000	-6.590000
	310.549763	1448.899697	20.592000	-6.570000
	310.649768	1448.898432	20.628000	-6.610000
	310.749774	1448.900961	20.646000	-6.580000
	310.849780	1448.898432	20.654000	-6.620000
	310.949785	1448.895904	20.638000	-6.620000
	311.049791	1448.889582	20.660000	-6.650000
	311.149797	1448.883260	20.646000	-6.650000
	311.249803	1448.883260	20.634000	-6.600000
	311.349808	1448.875674	20.614000	-6.660000
	311.451814	1448.875674	20.654000	-6.600000
	311.549820	1448.868088	20.652000	-6.660000
	311.649826	1448.869352	20.654000	-6.590000
	311.749831	1448.865559	20.634000	-6.630000
	311.849837	1448.865559	20.592000	-6.600000
	311.949842	1448.854180	20.624000	-6.690000
	312.048848	1448.859238	20.622000	-6.560000
	312.148854	1448.859238	20.622000	-6.560000
	312.248860	1448.859238	20.648000	-6.600000
	312.348866	1448.851652	20.652000	-6.660000
	312.448871	1448.855445	20.708000	-6.570000
	312.548877	1448.856709	20.692000	-6.590000
	312.648883	1448.859238	20.656000	-6.580000
	312.748888	1448.869353	20.752000	-6.520000
	312.848894	1448.880733	20.716000	-6.510000
	312.948900	1448.881997	20.726000	-6.590000
	313.049906	1448.894642	20.718000	-6.500000
	313.148911	1448.903493	20.734000	-6.530000
	313.248917	1448.919931	20.782000	-6.470000
	313.348923	1448.919931	20.732000	-6.600000
	313.448928	1448.928782	20.714000	-6.530000
	313.548934	1448.938898	20.732000	-6.520000
	313.648940	1448.941427	20.706000	-6.580000
	313.748946	1448.938898	20.780000	-6.620000
	313.848951	1448.942692	20.724000	-6.570000
	313.998960	1448.942692	20.724000	-6.570000
	314.098966	1448.949014	20.670000	-6.550000
	314.198971	1448.954072	20.648000	-6.560000
	314.298977	1448.956601	20.710000	-6.580000
	314.398983	1448.942692	20.702000	-6.710000
	314.498989	1448.931313	20.722000	-6.690000
	314.598994	1448.930048	20.710000	-6.610000
	314.699000	1448.933842	20.672000	-6.570000
	314.799006	1448.941429	20.694000	-6.540000
	314.899011	1448.945222	20.708000	-6.570000
	314.999017	1448.950280	20.700000	-6.560000
	315.099023	1448.949015	20.698000	-6.610000
	315.199028	1448.946486	20.700000	-6.620000
	315.299034	1448.933843	20.640000	-6.700000
	315.399040	1448.926256	20.616000	-6.660000
	315.449043	1448.921199	20.672000	-6.640000
	315.599051	1448.921199	20.672000	-6.640000
	315.699057	1448.922463	20.670000	-6.590000
	315.799063	1448.926256	20.650000	-6.570000
	315.899068	1448.928785	20.674000	-6.580000
	315.999074	1448.930050	20.684000	-6.590000
	316.099080	1448.930050	20.680000	-6.600000
	316.199086	1448.930050	20.680000	-6.600000
	316.299091	1448.937636	20.726000	-6.540000
	316.399097	1448.941430	20.746000	-6.570000
	316.499103	1448.951546	20.738000	-6.520000
	316.599109	1448.950281	20.710000	-6.610000
	316.699114	1448.947752	20.750000	-6.620000
	316.799120	1448.951546	20.736000	-6.570000
	316.899126	1448.951546	20.714000	-6.600000
	316.999132	1448.945224	20.708000	-6.650000
	317.101137	1448.937637	20.740000	-6.660000
	317.199143	1448.940166	20.696000	-6.580000
	317.299149	1448.940166	20.696000	-6.580000
	317.399154	1448.941430	20.726000	-6.590000
	317.499160	1448.943959	20.700000	-6.580000
	317.599166	1448.945224	20.674000	-6.590000
	317.699172	1448.947753	20.684000	-6.580000
	317.799177	1448.946488	20.708000	-6.610000
	317.899183	1448.945224	20.704000	-6.610000
	317.999188	1448.943959	20.696000	-6.610000
	318.099195	1448.947753	20.706000	-6.570000
	318.199200	1448.942695	20.674000	-6.640000
	318.299206	1448.941431	20.684000	-6.610000
	318.399211	1448.938902	20.628000	-6.620000
	318.499217	1448.945224	20.648000	-6.550000
	318.599223	1448.945224	20.648000	-6.600000
	318.705229	1448.946489	20.656000	-6.590000
	318.799234	1448.945224	20.622000	-6.610000
	318.899240	1448.943960	20.540000	-6.610000
	318.999246	1448.947753	20.636000	-6.570000
	319.099252	1448.950282	20.606000	-6.580000
	319.199257	1448.950282	20.606000	-6.580000
	319.299263	1448.950282	20.602000	-6.600000
	319.399269	1448.947753	20.622000	-6.620000
	319.499274	1448.952811	20.698000	-6.560000
	319.599280	1448.956604	20.720000	-6.570000
	319.699286	1448.957869	20.660000	-6.590000
	319.799292	1448.952811	20.696000	-6.640000
	319.899297	1448.957869	20.664000	-6.560000
	319.999303	1448.954076	20.696000	-6.630000
	320.099309	1448.955340	20.648000	-6.590000
	320.200315	1448.955340	20.694000	-6.600000
	320.299320	1448.959134	20.710000	-6.570000
	320.399326	1448.962927	20.696000	-6.570000
	320.499331	1448.965456	20.694000	-6.580000
	320.599338	1448.971778	20.662000	-6.550000
	320.699343	1448.975572	20.642000	-6.570000
	320.799349	1448.971778	20.668000	-6.630000
	320.899354	1448.966721	20.652000	-6.640000
	320.999360	1448.966721	20.652000	-6.640000
	321.099366	1448.960398	20.708000	-6.650000
	321.199372	1448.957870	20.690000	-6.620000
	321.299377	1448.961663	20.676000	-6.570000
	321.399383	1448.952812	20.698000	-6.670000
	321.499389	1448.945226	20.720000	-6.660000
	321.599394	1448.946490	20.682000	-6.590000
	321.699400	1448.951548	20.676000	-6.560000
	321.800406	1448.945226	20.702000	-6.650000
	321.899412	1448.945226	20.708000	-6.600000
	321.999417	1448.943961	20.712000	-6.610000
	322.099423	1448.931317	20.710000	-6.700000
	322.199429	1448.928789	20.644000	-6.620000
	322.299435	1448.919938	20.604000	-6.670000
	322.399440	1448.913616	20.650000	-6.650000
	322.499446	1448.906030	20.740000	-6.660000
	322.599452	1448.904765	20.762000	-6.610000
	322.699458	1448.904765	20.762000	-6.610000
	322.799463	1448.902236	20.748000	-6.620000
	322.899469	1448.902236	20.724000	-6.600000
	322.999475	1448.902236	20.720000	-6.600000
	323.099480	1448.907294	20.716000	-6.560000
	323.199486	1448.914881	20.726000	-6.540000
	323.299492	1448.911088	20.696000	-6.630000
	323.402498	1448.911088	20.722000	-6.600000
	323.499503	1448.909823	20.742000	-6.610000
	323.599509	1448.903501	20.710000	-6.650000
	323.699515	1448.916146	20.706000	-6.500000
	323.799520	1448.916146	20.724000	-6.600000
	323.899526	1448.924997	20.736000	-6.530000
	323.999532	1448.919939	20.712000	-6.640000
	324.149540	1448.927526	20.702000	-6.540000
	324.249546	1448.927526	20.688000	-6.600000
	324.349552	1448.936377	20.726000	-6.530000
	324.449558	1448.937642	20.712000	-6.590000
	324.549563	1448.943964	20.746000	-6.550000
	324.649569	1448.952816	20.760000	-6.530000
	324.749575	1448.957873	20.738000	-6.560000
	324.849580	1448.957873	20.738000	-6.560000
	324.949586	1448.960402	20.760000	-6.580000
	325.049592	1448.964196	20.722000	-6.570000
	325.149598	1448.973047	20.738000	-6.530000
	325.249603	1448.975576	20.770000	-6.580000
	325.349609	1448.974312	20.748000	-6.610000
	325.449615	1448.974312	20.758000	-6.600000
	325.549621	1448.979370	20.702000	-6.560000
	325.649626	1448.986957	20.694000	-6.540000
	325.749632	1448.999602	20.702000	-6.500000
	325.857638	1449.000867	20.728000	-6.590000
	325.949644	1449.009718	20.732000	-6.530000
	326.049649	1449.014776	20.722000	-6.560000
	326.149655	1449.018570	20.716000	-6.570000
	326.249660	1449.008454	20.744000	-6.680000
	326.349666	1449.019835	20.818000	-6.510000
	326.449672	1449.027423	20.830000	-6.540000
	326.599680	1449.027423	20.830000	-6.540000
	326.699687	1449.031216	20.836000	-6.570000
	326.799692	1449.031216	20.790000	-6.600000
	326.899698	1449.036274	20.812000	-6.560000
	326.999703	1449.033745	20.770000	-6.620000
	327.099709	1449.038803	20.790000	-6.560000
	327.199715	1449.033745	20.750000	-6.640000
	327.299721	1449.031216	20.756000	-6.620000
	327.399726	1449.024894	20.782000	-6.650000
	327.499732	1449.021100	20.700000	-6.630000
	327.599738	1449.021100	20.590000	-6.600000
	327.699744	1449.017307	20.484000	-6.630000
	327.799749	1449.016042	20.488000	-6.610000
	327.899755	1449.010985	20.474000	-6.640000
	327.999761	1449.004662	20.444000	-6.650000
