LabVIEW Measurement	
Writer_Version	2
Reader_Version	2
Separator	Tab
Decimal_Separator	.
Multi_Headings	No
X_Columns	No
Time_Pref	Relative
Operator	Herve
Date	2023/08/01
Time	17:46:46.9164776802062988281
***End_of_Header***	
	
Channels	4				
Samples	3320	3320	3320	3320	
Date	1904/01/01	1904/01/01	1904/01/01	1904/01/01	
Time	09:00:00	09:00:00	09:00:00	09:00:00	
Y_Unit_Label	s	Hz	mV	°	
X_Dimension	Time	Time	Time	Time	
X0	0.0000000000000000E+0	0.0000000000000000E+0	0.0000000000000000E+0	0.0000000000000000E+0	
Delta_X	1.000000	1.000000	1.000000	1.000000	
***End_of_Header***					
X_Value	Time	Res.Frequency	Amplitude	Phase	Comment
	0.047003	1361.728209	11.824000	-4.860000
	0.147008	1361.727021	11.808000	-4.910000
	0.247014	1361.727021	11.812000	-4.900000
	0.347020	1361.715138	11.832000	-5.000000
	0.447026	1361.717514	11.830000	-4.880000
	0.497028	1361.717514	11.830000	-4.880000
	0.647037	1361.705632	11.824000	-5.000000
	0.747043	1361.703255	11.822000	-4.920000
	0.847049	1361.699690	11.826000	-4.930000
	0.947054	1361.699690	11.802000	-4.900000
	1.047060	1361.693749	11.826000	-4.950000
	1.151066	1361.688996	11.814000	-4.940000
	1.248072	1361.686619	11.828000	-4.920000
	1.349077	1361.686619	11.828000	-4.920000
	1.397080	1361.687807	11.804000	-4.890000
	1.497086	1361.687807	11.804000	-4.900000
	1.647094	1361.688996	11.820000	-4.890000
	1.747100	1361.699691	11.836000	-4.810000
	1.847106	1361.716328	11.816000	-4.760000
	1.952112	1361.717517	11.824000	-4.890000
	2.047117	1361.705634	11.806000	-5.000000
	2.147123	1361.715141	11.810000	-4.820000
	2.247128	1361.697317	11.822000	-5.050000
	2.347134	1361.697317	11.828000	-4.900000
	2.452140	1361.700882	11.812000	-4.870000
	2.547146	1361.688999	11.812000	-5.000000
	2.647151	1361.688999	11.812000	-5.000000
	2.749157	1361.692564	11.824000	-4.870000
	2.847163	1361.698506	11.800000	-4.850000
	2.996171	1361.694941	11.806000	-4.930000
	3.096177	1361.693753	11.814000	-4.910000
	3.197183	1361.712767	11.812000	-4.740000
	3.296189	1361.713955	11.800000	-4.890000
	3.457198	1361.715144	11.822000	-4.890000
	3.546203	1361.718709	11.814000	-4.870000
	3.646209	1361.727027	11.838000	-4.830000
	3.746214	1361.731781	11.832000	-4.860000
	3.846220	1361.735346	11.822000	-4.870000
	3.946226	1361.723463	11.838000	-5.000000
	4.046232	1361.710392	11.826000	-5.010000
	4.146237	1361.702074	11.810000	-4.970000
	4.246243	1361.694944	11.820000	-4.960000
	4.349249	1361.703263	11.800000	-4.830000
	4.446254	1361.709204	11.820000	-4.850000
	4.546260	1361.716334	11.826000	-4.840000
	4.646266	1361.716334	11.826000	-4.840000
	4.746272	1361.718711	11.816000	-4.880000
	4.846277	1361.722276	11.830000	-4.870000
	4.946283	1361.729406	11.834000	-4.840000
	5.046289	1361.721088	11.828000	-4.970000
	5.146295	1361.715147	11.828000	-4.950000
	5.247300	1361.709205	11.834000	-4.950000
	5.347306	1361.700887	11.820000	-4.970000
	5.446311	1361.697322	11.822000	-4.930000
	5.546317	1361.692569	11.808000	-4.940000
	5.646323	1361.684251	11.808000	-4.970000
	5.746329	1361.684251	11.808000	-4.970000
	5.896338	1361.694946	11.824000	-4.810000
	5.996343	1361.713961	11.808000	-4.740000
	6.096349	1361.703266	11.812000	-4.990000
	6.196354	1361.700889	11.806000	-4.920000
	6.296360	1361.704454	11.830000	-4.870000
	6.396366	1361.712773	11.840000	-4.830000
	6.496372	1361.713961	11.832000	-4.890000
	6.597377	1361.710396	11.828000	-4.930000
	6.696383	1361.709208	11.846000	-4.910000
	6.746386	1361.709208	11.846000	-4.910000
	6.896395	1361.709208	11.846000	-4.900000
	6.996400	1361.700890	11.824000	-4.970000
	7.096406	1361.700890	11.816000	-4.900000
	7.196412	1361.697325	11.832000	-4.930000
	7.296417	1361.697325	11.806000	-4.900000
	7.396423	1361.697325	11.816000	-4.900000
	7.496429	1361.686631	11.824000	-4.990000
	7.596435	1361.698514	11.816000	-4.800000
	7.701441	1361.709209	11.806000	-4.810000
	7.796446	1361.709209	11.806000	-4.810000
	7.896452	1361.711586	11.816000	-4.880000
	7.996458	1361.721093	11.812000	-4.820000
	8.096463	1361.734165	11.824000	-4.790000
	8.196469	1361.740107	11.820000	-4.850000
	8.296474	1361.721095	11.850000	-5.060000
	8.396481	1361.724660	11.690000	-4.870000
	8.496486	1361.683074	12.244000	-5.250000
	8.596492	1361.636738	11.854000	-5.290000
	8.707498	1361.607035	11.706000	-5.150000
	8.796503	1361.607035	11.706000	-5.150000
	8.896509	1361.630801	11.828000	-4.700000
	8.996515	1361.693795	12.120000	-4.370000
	9.096520	1361.717563	11.908000	-4.700000
	9.196526	1361.716375	11.826000	-4.910000
	9.296532	1362.104739	12.110000	-1.640000
	9.396537	1362.039377	11.894000	-5.450000
	9.496543	1361.989464	11.482000	-5.320000
	9.600549	1361.921730	11.850000	-5.470000
	9.696555	1361.882515	11.768000	-5.230000
	9.796560	1361.882515	11.768000	-5.230000
	9.896566	1361.858748	11.680000	-5.100000
	9.996572	1361.953863	11.616000	-4.100000
	10.096578	1361.861183	11.842000	-5.680000
	10.196583	1361.863560	11.846000	-4.880000
	10.296589	1361.767323	11.942000	-5.710000
	10.396595	1361.747122	11.782000	-5.070000
	10.496601	1362.456182	11.032000	1.030000
	10.612607	1364.215303	9.872000	9.490000
	10.696612	1365.566388	10.190000	6.250000
	10.796618	1366.632421	10.450000	3.940000
	10.896623	1366.632421	10.450000	3.940000
	10.996629	1367.499605	10.364000	2.310000
	11.096635	1368.073767	10.326000	-0.110000
	11.196640	1368.657830	10.174000	-0.030000
	11.296646	1369.085443	10.290000	-1.330000
	11.396652	1369.675982	10.608000	0.020000
	11.499658	1370.007731	10.186000	-2.130000
	11.596663	1370.124957	10.210000	-3.920000
	11.696669	1370.291287	10.094000	-3.510000
	11.796675	1370.397763	10.118000	-4.010000
	11.896680	1370.397763	10.118000	-4.010000
	11.996686	1370.690050	9.768000	-2.460000
	12.096692	1370.779796	10.302000	-4.150000
	12.196698	1370.815688	9.934000	-4.600000
	12.296703	1370.828848	9.926000	-4.790000
	12.396709	1370.881495	9.756000	-4.460000
	12.506715	1370.873121	9.774000	-4.970000
	12.596721	1370.894656	9.740000	-4.720000
	12.696726	1370.925765	9.774000	-4.640000
	12.796732	1370.919783	9.744000	-4.950000
	12.896738	1370.919783	9.744000	-4.950000
	13.046746	1370.919783	9.728000	-4.900000
	13.146752	1370.796601	9.664000	-5.930000
	13.246758	1370.760718	9.812000	-5.200000
	13.346764	1370.696136	9.820000	-5.440000
	13.446769	1370.614817	9.810000	-5.580000
	13.546775	1370.523939	9.774000	-5.660000
	13.646780	1370.435458	9.796000	-5.640000
	13.746786	1370.346983	9.760000	-5.640000
	13.846792	1370.346983	9.760000	-5.640000
	13.896795	1370.201145	9.880000	-6.120000
	14.046803	1370.158105	9.906000	-5.260000
	14.146809	1370.377165	9.626000	-3.070000
	14.246815	1371.965688	9.572000	8.080000
	14.346821	1371.648553	9.798000	-7.550000
	14.446826	1371.308751	9.896000	-7.740000
	14.546832	1371.050387	9.906000	-7.060000
	14.646838	1370.787287	9.844000	-7.100000
	14.746843	1370.517064	9.894000	-7.160000
	14.850850	1370.312639	9.838000	-6.610000
	14.947855	1370.312639	9.838000	-6.610000
	15.046861	1370.121391	9.820000	-6.500000
	15.146866	1369.944509	9.802000	-6.380000
	15.246872	1369.828583	9.826000	-5.870000
	15.346878	1369.734173	9.832000	-5.690000
	15.446884	1369.643354	9.864000	-5.660000
	15.546889	1369.571655	9.866000	-5.500000
	15.646895	1369.517882	9.886000	-5.350000
	15.753901	1369.473669	9.898000	-5.270000
	15.850907	1369.453354	9.892000	-5.070000
	15.946912	1369.453354	9.892000	-5.070000
	16.046918	1369.442598	9.916000	-4.990000
	16.146924	1369.421089	9.928000	-5.080000
	16.246929	1369.405554	9.902000	-5.030000
	16.347935	1369.398384	9.912000	-4.960000
	16.446941	1369.395994	9.916000	-4.920000
	16.546947	1369.379265	9.894000	-5.040000
	16.648952	1369.375680	9.872000	-4.930000
	16.750958	1369.362535	9.876000	-5.010000
	16.846964	1369.341027	9.862000	-5.080000
	16.946970	1369.341027	9.862000	-5.080000
	17.046975	1369.318324	9.870000	-5.090000
	17.146981	1369.272923	9.882000	-5.280000
	17.246986	1369.225134	9.894000	-5.300000
	17.346992	1369.182124	9.896000	-5.260000
	17.446998	1369.142700	9.916000	-5.230000
	17.547004	1369.118806	9.916000	-5.100000
	17.647009	1369.120001	9.936000	-4.890000
	17.760016	1369.129559	9.952000	-4.820000
	17.847021	1369.157042	9.938000	-4.670000
	17.947027	1369.157042	9.938000	-4.670000
	18.047032	1369.176161	9.930000	-4.740000
	18.147038	1369.174966	9.896000	-4.910000
	18.247044	1369.158239	9.886000	-5.040000
	18.347050	1369.137929	9.868000	-5.070000
	18.447055	1369.117619	9.870000	-5.070000
	18.550061	1369.081780	9.892000	-5.200000
	18.649067	1369.045942	9.910000	-5.200000
	18.747072	1369.016077	9.952000	-5.150000
	18.847078	1368.999352	9.952000	-5.040000
	18.947084	1368.999352	9.966000	-4.900000
	19.047090	1368.999352	9.966000	-4.900000
	19.147095	1369.008910	9.974000	-4.820000
	19.247101	1369.022052	9.954000	-4.790000
	19.347107	1369.039974	9.944000	-4.750000
	19.447113	1369.050727	9.932000	-4.810000
	19.547118	1369.026834	9.896000	-5.100000
	19.656124	1369.012498	9.888000	-5.020000
	19.747129	1368.980245	9.924000	-5.170000
	19.847136	1368.943216	9.914000	-5.210000
	19.947141	1368.916936	9.936000	-5.120000
	20.047147	1368.916936	9.936000	-5.120000
	20.197155	1368.901407	9.950000	-5.030000
	20.297161	1368.881101	9.982000	-5.070000
	20.397167	1368.896631	9.972000	-4.770000
	20.496172	1368.916940	9.964000	-4.730000
	20.596178	1368.952784	9.920000	-4.600000
	20.696184	1368.952784	9.902000	-4.900000
	20.796190	1368.936060	9.928000	-5.040000
	20.896195	1368.901420	9.908000	-5.190000
	20.996201	1368.882308	9.906000	-5.060000
	21.096207	1368.882308	9.906000	-5.060000
	21.196212	1368.856029	9.956000	-5.120000
	21.296218	1368.845279	9.986000	-4.990000
	21.396224	1368.847668	9.974000	-4.880000
	21.496230	1368.865587	9.990000	-4.750000
	21.596235	1368.885896	9.960000	-4.730000
	21.698241	1368.909790	9.952000	-4.700000
	21.796247	1368.927710	9.926000	-4.750000
	21.896253	1368.908598	9.904000	-5.060000
	22.005259	1368.908598	9.904000	-5.060000
	22.096264	1368.878736	9.916000	-5.150000
	22.196270	1368.856041	9.908000	-5.090000
	22.296276	1368.828569	9.930000	-5.130000
	22.396281	1368.804680	9.970000	-5.100000
	22.496287	1368.801097	9.984000	-4.930000
	22.596292	1368.797513	9.990000	-4.930000
	22.696298	1368.821405	9.988000	-4.700000
	22.796304	1368.839324	9.962000	-4.750000
	22.896310	1368.824991	9.938000	-5.020000
	22.999316	1368.816629	9.932000	-4.970000
	23.096321	1368.816629	9.932000	-4.970000
	23.196327	1368.798713	9.938000	-5.050000
	23.296333	1368.770047	9.926000	-5.140000
	23.396338	1368.742577	9.946000	-5.130000
	23.496344	1368.736605	9.976000	-4.950000
	23.596350	1368.743772	10.000000	-4.840000
	23.696355	1368.749744	10.000000	-4.850000
	23.796361	1368.760495	9.966000	-4.810000
	23.905367	1368.770051	9.946000	-4.820000
	23.996373	1368.780802	9.948000	-4.810000
	24.096378	1368.780802	9.948000	-4.810000
	24.196384	1368.762885	9.946000	-5.050000
	24.296390	1368.734221	9.932000	-5.140000
	24.396396	1368.701974	9.944000	-5.170000
	24.496401	1368.672117	9.974000	-5.150000
	24.596407	1368.654202	9.972000	-5.050000
	24.696413	1368.650619	10.002000	-4.930000
	24.796419	1368.672120	9.998000	-4.720000
	24.905425	1368.690037	9.968000	-4.750000
	24.996430	1368.694815	9.950000	-4.860000
	25.096436	1368.685260	9.922000	-4.980000
	25.196441	1368.685260	9.922000	-4.980000
	25.296447	1368.654208	9.932000	-5.160000
	25.446455	1368.614799	9.968000	-5.230000
	25.546461	1368.589720	9.978000	-5.110000
	25.646467	1368.573001	10.026000	-5.040000
	25.746473	1368.577778	9.978000	-4.860000
	25.846478	1368.584944	9.988000	-4.840000
	25.946484	1368.592110	9.950000	-4.840000
	26.046490	1368.571808	9.954000	-5.070000
	26.146496	1368.561060	9.964000	-4.990000
	26.247501	1368.514490	9.966000	-5.290000
	26.346507	1368.484636	9.956000	-5.150000
	26.446513	1368.446426	10.000000	-5.220000
	26.548519	1368.446426	10.000000	-5.220000
	26.646524	1368.329433	10.154000	-5.880000
	26.746530	1368.343763	10.022000	-4.780000
	26.846536	1368.349734	10.022000	-4.850000
	26.946541	1368.374813	9.986000	-4.690000
	27.046547	1368.408253	9.988000	-4.620000
	27.146553	1368.444083	9.952000	-4.600000
	27.247559	1368.417813	9.946000	-5.120000
	27.346564	1368.359310	9.948000	-5.390000
	27.446570	1368.274549	9.932000	-5.610000
	27.546576	1368.119385	9.976000	-6.200000
	27.646582	1367.974976	10.132000	-6.110000
	27.746587	1367.849672	10.080000	-5.950000
	27.846593	1367.775682	10.094000	-5.520000
	27.946599	1367.738685	10.062000	-5.210000
	28.046604	1367.594316	10.090000	-6.110000
	28.146610	1367.565676	10.018000	-5.140000
	28.246616	1367.565676	10.018000	-5.140000
	28.346622	1367.531071	10.024000	-5.190000
	28.446627	1367.520331	10.022000	-4.990000
	28.546633	1367.541814	10.074000	-4.720000
	28.646638	1367.593141	10.058000	-4.470000
	28.746644	1367.661187	10.018000	-4.330000
	28.846650	1367.681478	9.840000	-4.730000
	28.946656	1367.716095	10.016000	-4.610000
	29.046661	1367.737581	10.066000	-4.720000
	29.146667	1367.774587	10.070000	-4.590000
	29.246673	1367.827117	10.068000	-4.460000
	29.346679	1368.019481	10.588000	-3.290000
	29.459685	1367.994413	10.024000	-5.110000
	29.546690	1367.826156	9.934000	-6.310000
	29.646696	1367.845256	10.226000	-4.740000
	29.746702	1367.894206	10.056000	-4.490000
	29.846707	1367.995717	10.480000	-4.050000
	29.946713	1367.995717	10.480000	-4.050000
	30.046719	1368.020789	10.066000	-4.690000
	30.146724	1368.012433	10.080000	-4.970000
	30.246730	1368.008851	10.018000	-4.930000
	30.346736	1368.070945	9.972000	-4.380000
	30.446742	1368.119904	9.986000	-4.490000
	30.546747	1368.146172	10.002000	-4.680000
	30.646753	1368.193939	10.006000	-4.500000
	30.746759	1368.242901	10.022000	-4.490000
	30.846765	1368.321733	10.014000	-4.240000
	30.946770	1368.392204	9.958000	-4.310000
	31.046776	1368.453121	9.950000	-4.390000
	31.146781	1368.488952	9.928000	-4.600000
	31.246788	1368.500895	9.944000	-4.800000
	31.346793	1368.563011	9.928000	-4.380000
	31.447799	1368.579732	9.968000	-4.760000
	31.546804	1368.579732	9.968000	-4.760000
	31.646810	1368.553460	9.974000	-5.120000
	31.746816	1368.808197	10.078000	-2.770000
	31.846822	1368.684011	10.126000	-5.940000
	31.946827	1368.663708	10.002000	-5.070000
	32.047833	1368.641016	9.992000	-5.090000
	32.146839	1368.658933	9.984000	-4.750000
	32.246845	1368.698354	9.958000	-4.570000
	32.346850	1368.752114	9.952000	-4.450000
	32.446856	1368.717479	9.808000	-5.190000
	32.546862	1368.730618	9.932000	-4.790000
	32.646867	1368.765261	9.932000	-4.610000
	32.746873	1368.772429	9.924000	-4.840000
	32.846879	1368.803489	9.868000	-4.640000
	32.949885	1368.827381	9.912000	-4.700000
	33.046890	1368.844105	9.914000	-4.760000
	33.146896	1368.761703	9.978000	-5.590000
	33.246902	1368.785594	9.952000	-4.700000
	33.346908	1368.785594	9.952000	-4.700000
	33.496916	1368.810681	10.274000	-4.690000
	33.596922	1368.807098	9.964000	-4.930000
	33.696928	1368.791570	10.006000	-5.030000
	33.796933	1368.838164	9.978000	-4.510000
	33.897939	1368.919420	9.956000	-4.220000
	33.996944	1368.999486	9.966000	-4.230000
	34.096951	1369.108254	9.928000	-3.990000
	34.196956	1369.194309	9.898000	-4.180000
	34.296962	1369.289937	9.896000	-4.100000
	34.397967	1369.409494	9.902000	-3.900000
	34.496973	1369.469260	9.842000	-4.400000
	34.596979	1369.667844	10.006000	-3.240000
	34.696985	1369.707294	9.850000	-4.570000
	34.796990	1369.577053	9.820000	-5.990000
	34.896996	1369.645198	9.910000	-4.330000
	34.997002	1369.645198	9.910000	-4.330000
	35.097008	1369.177930	9.648000	-8.810000
	35.197013	1369.236491	10.006000	-4.410000
	35.297019	1369.284295	9.840000	-4.500000
	35.399025	1369.105133	9.926000	-6.400000
	35.497030	1368.883008	10.046000	-6.760000
	35.597036	1368.892565	9.374000	-4.820000
	35.697042	1369.003716	9.830000	-3.970000
	35.797048	1369.145977	9.796000	-3.710000
	35.897053	1369.312188	9.794000	-3.510000
	35.997059	1369.370755	9.824000	-4.410000
	36.097064	1369.437694	9.804000	-4.340000
	36.197071	1369.296729	10.062000	-6.080000
	36.297076	1369.362468	9.848000	-4.350000
	36.397082	1369.362468	9.848000	-4.350000
	36.497087	1369.480836	9.646000	-3.910000
	36.597093	1369.537018	9.818000	-4.430000
	36.697099	1369.495194	9.830000	-5.250000
	36.797105	1369.529857	9.668000	-4.610000
	36.897110	1369.692523	9.870000	-3.540000
	36.997116	1369.731973	9.816000	-4.570000
	37.097122	1369.770229	9.824000	-4.580000
	37.197128	1369.803703	9.842000	-4.620000
	37.299133	1369.828809	9.866000	-4.690000
	37.397139	1369.827613	9.906000	-4.910000
	37.497145	1369.815660	9.918000	-5.000000
	37.597150	1369.794144	9.916000	-5.080000
	37.697156	1369.743947	9.892000	-5.320000
	37.797162	1369.697337	9.870000	-5.290000
	37.897168	1369.667458	9.846000	-5.150000
	37.996173	1369.667458	9.846000	-5.150000
	38.096179	1369.641164	9.860000	-5.120000
	38.201185	1369.656703	9.812000	-4.770000
	38.296191	1369.673438	9.814000	-4.760000
	38.396196	1369.711692	9.826000	-4.580000
	38.496202	1369.745165	9.850000	-4.620000
	38.596208	1369.763096	9.894000	-4.750000
	38.696213	1369.764291	9.922000	-4.890000
	38.796219	1369.747557	9.922000	-5.040000
	38.896225	1369.708117	9.920000	-5.230000
	38.996231	1369.666287	9.924000	-5.250000
	39.099236	1369.611315	9.958000	-5.360000
	39.199242	1369.536035	9.934000	-5.530000
	39.297248	1369.536035	9.934000	-5.530000
	39.396254	1369.465537	9.916000	-5.490000
	39.496259	1369.403405	9.930000	-5.420000
	39.596265	1369.406990	9.766000	-4.870000
	39.696270	1369.365169	9.920000	-5.250000
	39.796276	1369.928033	10.568000	-0.210000
	39.896282	1369.586266	10.222000	-7.760000
	39.996288	1369.525323	9.926000	-5.410000
	40.100294	1369.463188	9.884000	-5.420000
	40.196299	1369.463188	9.858000	-4.900000
	40.296305	1369.463188	9.858000	-4.900000
	40.396311	1369.570797	9.744000	-4.000000
	40.496316	1369.557650	9.832000	-5.010000
	40.646325	1369.551675	9.860000	-4.950000
	40.746331	1369.546894	9.848000	-4.940000
	40.846336	1369.555261	9.658000	-4.830000
	40.946342	1369.544505	9.840000	-4.990000
	41.046348	1369.558847	9.848000	-4.780000
	41.146354	1369.532556	9.754000	-5.120000
	41.246359	1369.606678	9.854000	-4.280000
	41.346365	1369.676020	9.746000	-4.320000
	41.446371	1369.599541	9.874000	-5.540000
	41.496374	1369.599541	9.874000	-5.540000
	41.646382	1369.579224	9.550000	-5.070000
	41.746388	1369.678467	9.846000	-4.070000
	41.846394	1369.752596	9.862000	-4.280000
	41.946399	1369.850656	9.850000	-4.080000
	42.046405	1369.957098	9.878000	-4.010000
	42.146411	1369.963076	9.870000	-4.850000
	42.246417	1370.046792	9.886000	-4.200000
	42.346422	1369.924883	10.156000	-5.920000
	42.446428	1369.972711	9.698000	-4.500000
	42.563435	1369.972711	9.698000	-4.500000
	42.646440	1369.994233	9.888000	-4.720000
	42.746445	1370.000210	9.862000	-4.850000
	42.846451	1370.010971	9.872000	-4.810000
	42.946456	1370.040863	9.798000	-4.650000
	43.046462	1370.054015	9.808000	-4.790000
	43.146468	1370.095868	9.796000	-4.550000
	43.246474	1370.137722	9.788000	-4.550000
	43.346479	1370.198717	9.810000	-4.390000
	43.454485	1370.235789	9.830000	-4.590000
	43.546491	1370.271667	9.860000	-4.600000
	43.646496	1370.300369	9.880000	-4.660000
	43.746502	1370.300369	9.880000	-4.660000
	43.846508	1370.714048	10.266000	-1.450000
	43.996517	1370.643489	9.816000	-5.490000
	44.096522	1370.576521	9.836000	-5.460000
	44.196528	1370.395994	9.834000	-6.410000
	44.296534	1370.390015	9.814000	-4.950000
	44.396539	1370.497696	9.884000	-4.000000
	44.496545	1370.455842	9.660000	-5.250000
	44.596551	1370.474979	9.820000	-4.740000
	44.696557	1370.490527	9.860000	-4.770000
	44.796562	1370.470197	9.946000	-5.070000
	44.846565	1370.470197	9.946000	-5.070000
	44.996574	1370.362594	9.854000	-5.800000
	45.096580	1370.277709	9.848000	-5.610000
	45.196585	1370.161756	10.064000	-5.870000
	45.296591	1370.136648	9.782000	-5.110000
	45.396596	1370.145018	9.802000	-4.830000
	45.496603	1370.136649	9.830000	-4.970000
	45.596608	1370.149802	9.810000	-4.790000
	45.696614	1370.170130	9.824000	-4.730000
	45.797620	1370.180892	9.834000	-4.810000
	45.896625	1370.203612	9.864000	-4.710000
	45.996631	1370.203612	9.864000	-4.710000
	46.096637	1370.214374	9.898000	-4.810000
	46.196642	1370.211983	9.894000	-4.920000
	46.299648	1370.202417	9.902000	-4.980000
	46.396654	1370.167745	9.890000	-5.190000
	46.496660	1370.137856	9.872000	-5.150000
	46.596665	1370.101990	9.868000	-5.200000
	46.724673	1370.101990	9.868000	-5.200000
	46.805677	1370.098403	9.890000	-4.930000
	46.896682	1370.086447	9.902000	-5.000000
	46.996688	1370.054169	9.874000	-5.170000
	47.096694	1370.026673	9.822000	-5.130000
	47.196700	1370.009936	9.814000	-5.040000
	47.346708	1370.020696	9.818000	-4.810000
	47.446714	1370.050589	9.816000	-4.650000
	47.548720	1370.104402	9.832000	-4.450000
	47.646725	1370.143864	9.862000	-4.570000
	47.746731	1370.164193	9.892000	-4.730000
	47.846737	1370.179737	9.898000	-4.770000
	47.946743	1370.162999	9.912000	-5.040000
	48.046748	1370.106811	9.906000	-5.370000
	48.146754	1370.064970	9.904000	-5.250000
	48.196757	1370.064970	9.904000	-5.250000
	48.346766	1370.049428	9.906000	-5.030000
	48.446771	1370.032690	9.762000	-5.040000
	48.546777	1370.021930	9.822000	-4.990000
	48.646782	1370.015953	9.798000	-4.950000
	48.746788	1370.021931	9.812000	-4.850000
	48.846794	1370.042257	9.784000	-4.730000
	48.946800	1370.226546	9.926000	-3.360000
	49.046805	1369.963604	9.812000	-7.100000
	49.149811	1369.900254	9.854000	-5.430000
	49.246817	1369.948082	9.870000	-4.500000
	49.346823	1369.948082	9.870000	-4.500000
	49.446828	1369.992324	9.880000	-4.530000
	49.546834	1370.000693	9.916000	-4.830000
	49.646840	1370.019823	9.910000	-4.740000
	49.746845	1370.052107	9.892000	-4.630000
	49.846851	1370.077217	9.918000	-4.690000
	49.946857	1370.025814	10.002000	-5.330000
	50.047863	1370.110731	9.776000	-4.190000
	50.147869	1370.086820	9.860000	-5.100000
	50.248874	1369.992392	9.896000	-5.690000
	50.346880	1369.994783	9.846000	-4.880000
	50.448885	1369.994783	9.846000	-4.880000
	50.546891	1370.005543	9.844000	-4.810000
	50.696900	1369.995979	9.822000	-4.980000
	50.796906	1370.004348	9.796000	-4.830000
	50.896911	1370.043808	9.786000	-4.570000
	50.996917	1370.113172	9.566000	-4.320000
	51.096923	1370.204076	9.832000	-4.140000
	51.196929	1370.233973	9.810000	-4.650000
	51.296934	1370.288990	9.820000	-4.440000
	51.396940	1370.315300	9.884000	-4.680000
	51.496945	1370.306930	9.906000	-4.970000
	51.602952	1370.306930	9.906000	-4.970000
	51.696957	1370.272255	9.898000	-5.190000
	51.796963	1370.224431	9.888000	-5.300000
	51.896968	1370.181391	9.860000	-5.260000
	51.996974	1370.150305	9.840000	-5.160000
	52.096980	1370.118026	9.816000	-5.170000
	52.196986	1370.084551	9.822000	-5.180000
	52.296991	1370.103683	9.816000	-4.740000
	52.398997	1370.129989	9.828000	-4.680000
	52.497003	1370.129989	9.828000	-4.680000
	52.597009	1370.186198	9.830000	-4.430000
	52.697014	1370.232840	9.838000	-4.510000
	52.797020	1370.316572	9.860000	-4.200000
	52.897026	1370.340491	9.804000	-4.700000
	52.997031	1370.358430	9.866000	-4.750000
	53.097037	1370.358430	9.864000	-4.900000
	53.197043	1370.334515	9.798000	-5.100000
	53.297049	1370.323752	9.802000	-4.990000
	53.397054	1370.316578	9.792000	-4.960000
	53.447057	1370.316578	9.792000	-4.960000
	53.597066	1370.314186	9.780000	-4.920000
	53.697072	1370.368010	9.808000	-4.450000
	53.797077	1370.454144	9.794000	-4.180000
	53.897083	1370.590568	10.000000	-3.760000
	53.997088	1370.592960	9.814000	-4.880000
	54.097095	1370.584588	9.788000	-4.970000
	54.197100	1370.560669	9.738000	-5.100000
	54.297106	1370.540337	9.810000	-5.070000
	54.400112	1370.634862	9.832000	-4.110000
	54.497117	1370.634862	9.832000	-4.110000
	54.597123	1370.681519	9.806000	-4.510000
	54.699129	1370.648030	9.848000	-5.180000
	54.799134	1370.643246	9.792000	-4.940000
	54.897140	1370.609759	9.792000	-5.180000
	54.997146	1370.581055	9.756000	-5.140000
	55.097152	1370.600194	9.756000	-4.740000
	55.197157	1370.760591	9.848000	-3.560000
	55.297163	1370.729492	9.562000	-5.160000
	55.407169	1370.770169	9.754000	-4.560000
	55.496174	1370.723524	9.782000	-5.290000
	55.597180	1370.381558	9.750000	-7.760000
	55.696186	1370.381558	9.750000	-7.760000
	55.796191	1370.105438	9.634000	-7.210000
	55.946200	1370.220279	9.814000	-3.940000
	56.046206	1370.178433	9.528000	-5.250000
	56.146212	1370.304054	9.672000	-3.850000
	56.246217	1370.337541	9.920000	-4.620000
	56.346223	1370.353088	9.864000	-4.770000
	56.446229	1370.349501	9.820000	-4.930000
	56.546234	1370.366244	9.774000	-4.760000
	56.646240	1370.374615	9.740000	-4.830000
	56.747246	1370.423656	9.794000	-4.490000
	56.846251	1370.466716	9.790000	-4.540000
	56.946257	1370.500207	9.842000	-4.620000
	57.046263	1370.500207	9.842000	-4.620000
	57.146269	1370.489444	9.866000	-4.990000
	57.246274	1370.464331	9.844000	-5.110000
	57.396283	1370.441609	9.806000	-5.090000
	57.496289	1370.423671	9.768000	-5.050000
	57.596294	1370.427259	9.770000	-4.870000
	57.696300	1370.454768	9.786000	-4.670000
	57.796306	1370.493044	9.836000	-4.580000
	57.896312	1370.491848	9.860000	-4.910000
	57.996317	1370.463148	9.870000	-5.140000
	58.096323	1370.420099	9.852000	-5.260000
	58.146326	1370.420099	9.852000	-5.260000
	58.296334	1370.367488	9.800000	-5.340000
	58.396340	1370.335203	9.764000	-5.170000
	58.496346	1370.337595	9.790000	-4.880000
	58.596352	1370.359122	9.814000	-4.720000
	58.696357	1370.363905	9.854000	-4.860000
	58.796363	1370.369885	9.886000	-4.850000
	58.896369	1370.348361	9.888000	-5.080000
	58.996375	1370.310098	9.874000	-5.220000
	59.096380	1370.267055	9.824000	-5.260000
	59.205387	1370.245533	9.814000	-5.080000
	59.296391	1370.251512	9.786000	-4.850000
	59.396398	1370.271841	9.798000	-4.730000
	59.496403	1370.271841	9.798000	-4.730000
	59.596409	1370.311308	9.814000	-4.570000
	59.746418	1370.335227	9.856000	-4.700000
	59.846423	1370.341206	9.880000	-4.850000
	59.946429	1370.307726	9.892000	-5.180000
	60.046434	1370.263488	9.906000	-5.270000
	60.196443	1370.206101	9.862000	-5.380000
	60.296449	1370.177406	9.824000	-5.140000
	60.396455	1370.152298	9.780000	-5.110000
	60.496460	1370.149907	9.774000	-4.920000
	60.596466	1370.172627	9.812000	-4.710000
	60.696472	1370.192956	9.826000	-4.730000
	60.796477	1370.237205	9.874000	-4.530000
	60.896483	1370.259926	9.876000	-4.710000
	60.996489	1370.250360	9.894000	-4.980000
	61.046492	1370.250360	9.894000	-4.980000
	61.196500	1370.220469	9.898000	-5.150000
	61.296506	1370.166670	9.888000	-5.350000
	61.396512	1370.102116	9.854000	-5.440000
	61.496518	1370.038760	9.814000	-5.430000
	61.596523	1370.006483	9.828000	-5.170000
	61.696529	1370.002896	9.808000	-4.930000
	61.796535	1370.010070	9.802000	-4.840000
	61.896541	1370.023221	9.822000	-4.790000
	61.997546	1370.057898	9.832000	-4.610000
	62.096552	1370.057898	9.832000	-4.610000
	62.196558	1370.093771	9.846000	-4.600000
	62.296563	1370.092575	9.886000	-4.910000
	62.396569	1370.075837	9.908000	-5.040000
	62.496575	1370.044754	9.922000	-5.160000
	62.596581	1370.024431	9.926000	-5.070000
	62.696586	1370.068675	9.996000	-4.530000
	62.796592	1370.047155	9.870000	-5.080000
	62.896598	1370.018464	9.894000	-5.140000
	63.004604	1369.989773	9.846000	-5.140000
	63.096609	1369.977818	9.824000	-5.000000
	63.197615	1369.959887	9.826000	-5.050000
	63.296620	1369.959887	9.826000	-5.050000
	63.397626	1369.962278	9.832000	-4.880000
	63.546635	1369.961082	9.800000	-4.910000
	63.646640	1370.063943	9.846000	-4.040000
	63.746646	1370.091445	9.798000	-4.670000
	63.846652	1370.128515	9.868000	-4.590000
	63.946658	1370.150038	9.890000	-4.720000
	64.046663	1370.202659	9.978000	-4.460000
	64.146669	1370.173965	9.896000	-5.140000
	64.246675	1370.115387	9.904000	-5.390000
	64.346681	1370.058006	9.906000	-5.380000
	64.396683	1370.058006	9.906000	-5.380000
	64.546692	1370.000628	9.896000	-5.380000
	64.646698	1369.948033	9.864000	-5.340000
	64.746704	1369.901415	9.860000	-5.290000
	64.847709	1369.853604	9.846000	-5.300000
	64.946715	1369.847627	9.824000	-4.950000
	65.046721	1369.863168	9.824000	-4.770000
	65.146726	1369.847629	9.806000	-5.030000
	65.248732	1369.950481	9.702000	-4.040000
	65.346738	1370.040178	9.798000	-4.150000
	65.446743	1370.109542	9.864000	-4.320000
	65.546749	1370.109542	9.864000	-4.320000
	65.646755	1370.168143	9.816000	-4.410000
	65.746761	1370.193255	9.890000	-4.690000
	65.848766	1370.186081	9.892000	-4.960000
	65.946772	1370.174124	9.912000	-5.000000
	66.046778	1370.137062	9.876000	-5.210000
	66.146783	1370.111955	9.852000	-5.110000
	66.247789	1370.066527	9.848000	-5.280000
	66.360795	1370.357543	4.026000	-2.470000
	66.446801	1419.778181	0.152000	75.780000
	66.546806	1419.778181	0.152000	75.780000
	66.646812	1438.566684	0.178000	63.150000
	66.746818	1460.292307	0.214000	65.490000
	66.896826	1474.012980	0.228000	55.970000
	66.996832	1482.324129	0.230000	42.740000
	67.096838	1508.533627	0.196000	67.980000
	67.196844	1485.405692	2.764000	-78.130000
	67.296849	1465.846337	3.284000	-75.360000
	67.396855	1449.879759	3.816000	-71.430000
	67.496861	1436.229961	4.378000	-68.050000
	67.596867	1424.896359	5.058000	-63.570000
	67.696872	1415.548749	5.786000	-58.500000
	67.746875	1415.548749	5.786000	-58.500000
	67.896883	1407.738662	6.466000	-53.510000
	67.996889	1401.249153	7.074000	-48.240000
	68.096895	1395.654794	7.764000	-44.070000
	68.196901	1391.283694	8.152000	-37.370000
	68.297906	1387.659101	8.672000	-32.730000
	68.396912	1384.643597	9.014000	-28.620000
	68.496918	1382.188036	9.246000	-24.590000
	68.597924	1380.067760	9.358000	-22.080000
	68.705930	1380.067760	9.358000	-22.080000
	68.796935	1378.404643	9.502000	-18.530000
	68.896941	1377.030606	9.628000	-16.230000
	68.996946	1375.878324	9.644000	-14.440000
	69.096952	1374.882026	9.682000	-13.170000
	69.196958	1374.033274	9.814000	-11.960000
	69.296964	1373.393810	9.778000	-10.230000
	69.396969	1372.813575	9.826000	-9.740000
	69.496975	1372.363217	9.762000	-8.660000
	69.596981	1372.013656	9.872000	-7.820000
	69.705987	1371.661790	9.826000	-7.840000
	69.796992	1371.661790	9.826000	-7.840000
	69.896998	1371.405752	9.796000	-7.040000
	69.997004	1371.216744	9.808000	-6.480000
	70.097010	1371.061246	9.870000	-6.200000
	70.197015	1370.903374	9.862000	-6.220000
	70.297021	1370.745520	9.836000	-6.220000
	70.397027	1370.624744	9.810000	-5.910000
	70.497032	1370.556581	9.802000	-5.470000
	70.600038	1370.520705	9.848000	-5.200000
	70.697044	1370.482438	9.870000	-5.220000
	70.797050	1370.445367	9.878000	-5.210000
	70.897055	1370.399928	9.880000	-5.280000
	70.997061	1370.399928	9.880000	-5.280000
	71.097066	1370.344927	9.840000	-5.360000
	71.197073	1370.299491	9.822000	-5.280000
	71.297078	1370.258839	9.812000	-5.240000
	71.447087	1370.233730	9.808000	-5.110000
	71.547092	1370.239709	9.806000	-4.850000
	71.647098	1370.263626	9.838000	-4.700000
	71.747104	1370.287544	9.876000	-4.700000
	71.847109	1370.301895	9.886000	-4.780000
	71.947115	1370.301895	9.886000	-4.780000
	71.997118	1370.293524	9.882000	-4.970000
	72.147127	1370.273197	9.878000	-5.070000
	72.247132	1370.240914	9.860000	-5.170000
	72.347138	1370.207437	9.822000	-5.180000
	72.447144	1370.194284	9.806000	-5.010000
	72.597152	1370.191893	9.812000	-4.920000
	72.697158	1370.219397	9.814000	-4.670000
	72.797164	1370.257667	9.858000	-4.580000
	72.896170	1370.274409	9.862000	-4.760000
	72.996175	1370.273213	9.880000	-4.910000
	73.096181	1370.244517	9.898000	-5.140000
	73.196187	1370.222995	9.866000	-5.080000
	73.296193	1370.187127	9.844000	-5.200000
	73.346195	1370.169192	9.814000	-5.050000
	73.497204	1370.169192	9.814000	-5.050000
	73.596210	1370.171583	9.794000	-4.880000
	73.696215	1370.206263	9.812000	-4.610000
	73.796221	1370.230180	9.814000	-4.700000
	73.896227	1370.252901	9.834000	-4.710000
	73.996233	1370.266056	9.876000	-4.790000
	74.096238	1370.252903	9.892000	-5.010000
	74.196244	1370.228989	9.866000	-5.100000
	74.296250	1370.200294	9.844000	-5.140000
	74.399256	1370.188337	9.822000	-5.000000
	74.496261	1370.188337	9.822000	-5.000000
	74.596267	1370.193120	9.802000	-4.860000
	74.696272	1370.217037	9.830000	-4.700000
	74.796278	1370.243346	9.862000	-4.680000
	74.896284	1370.267263	9.892000	-4.700000
	74.996290	1370.260089	9.884000	-4.960000
	75.096295	1370.233784	9.876000	-5.120000
	75.196301	1370.212262	9.832000	-5.080000
	75.296307	1370.203892	9.788000	-4.970000
	75.409313	1370.203892	9.788000	-4.970000
	75.496318	1370.191935	9.828000	-5.000000
	75.597324	1370.218244	9.812000	-4.680000
	75.696330	1370.254121	9.832000	-4.600000
	75.796335	1370.281627	9.872000	-4.670000
	75.896341	1370.273256	9.892000	-4.970000
	75.996347	1370.272061	9.886000	-4.910000
	76.096353	1370.243364	9.876000	-5.140000
	76.196358	1370.220647	9.808000	-5.090000
	76.309365	1370.220647	9.814000	-4.900000
	76.396370	1370.237388	9.814000	-4.760000
	76.496376	1370.269678	9.834000	-4.630000
	76.596381	1370.269678	9.834000	-4.630000
	76.696387	1370.280440	9.874000	-4.810000
	76.796392	1370.278049	9.884000	-4.920000
	76.896399	1370.257722	9.864000	-5.070000
	76.996404	1370.230221	9.844000	-5.130000
	77.096410	1370.221851	9.780000	-4.970000
	77.196415	1370.237397	9.800000	-4.770000
	77.308422	1370.268490	9.830000	-4.640000
	77.397427	1370.295996	9.824000	-4.670000
	77.496433	1370.328287	9.846000	-4.630000
	77.596438	1370.328287	9.846000	-4.630000
	77.696444	1370.318721	9.880000	-4.980000
	77.846453	1370.287633	9.850000	-5.160000
	77.948459	1370.261327	9.810000	-5.120000
	78.046464	1370.254153	9.796000	-4.960000
	78.146470	1370.269699	9.792000	-4.770000
	78.246476	1370.296009	9.850000	-4.680000
	78.346481	1370.305576	9.894000	-4.820000
	78.446487	1370.301988	9.880000	-4.930000
	78.546493	1370.279270	9.886000	-5.090000
	78.651499	1370.257747	9.856000	-5.080000
	78.746504	1370.257747	9.856000	-5.080000
	78.846510	1370.231442	9.816000	-5.120000
	78.946516	1370.239813	9.792000	-4.830000
	79.046521	1370.270906	9.836000	-4.640000
	79.146527	1370.303197	9.866000	-4.630000
	79.246533	1370.319939	9.870000	-4.760000
	79.346539	1370.304394	9.880000	-5.030000
	79.446544	1370.273306	9.842000	-5.160000
	79.546550	1370.244610	9.808000	-5.140000
	79.649556	1370.258960	9.814000	-4.780000
	79.746562	1370.296034	9.824000	-4.590000
	79.846567	1370.296034	9.824000	-4.590000
	79.946573	1370.324737	9.858000	-4.660000
	80.048579	1370.337892	9.882000	-4.790000
	80.146584	1370.330717	9.876000	-4.960000
	80.246590	1370.306802	9.872000	-5.100000
	80.346596	1370.276910	9.808000	-5.150000
	80.448602	1370.278106	9.808000	-4.890000
	80.546607	1370.302024	9.816000	-4.700000
	80.656613	1370.322354	9.824000	-4.730000
	80.746619	1370.358234	9.850000	-4.600000
	80.846624	1370.367801	9.890000	-4.820000
	80.949630	1370.367801	9.890000	-4.820000
	81.065637	1370.337908	9.860000	-5.150000
	81.196644	1370.308014	9.840000	-5.150000
	81.296650	1370.270949	9.798000	-5.210000
	81.396656	1370.273340	9.790000	-4.880000
	81.496662	1370.292474	9.832000	-4.740000
	81.596667	1370.310413	9.860000	-4.750000
	81.696673	1370.325959	9.868000	-4.770000
	81.796679	1370.308023	9.894000	-5.050000
	81.896684	1370.284108	9.854000	-5.100000
	81.996690	1370.273347	9.822000	-4.990000
	82.096696	1370.250628	9.812000	-5.090000
	82.196702	1370.250628	9.812000	-5.090000
	82.296707	1370.270958	9.796000	-4.730000
	82.397713	1370.286504	9.830000	-4.770000
	82.496718	1370.322383	9.856000	-4.600000
	82.596725	1370.334342	9.878000	-4.800000
	82.696730	1370.321189	9.884000	-5.010000
	82.796736	1370.292491	9.848000	-5.140000
	82.896741	1370.278142	9.832000	-5.020000
	83.001748	1370.274555	9.812000	-4.930000
	83.099753	1370.284122	9.806000	-4.820000
	83.196759	1370.294884	9.820000	-4.810000
	83.296764	1370.294884	9.820000	-4.810000
	83.396770	1370.325979	9.836000	-4.640000
	83.546779	1370.336742	9.878000	-4.810000
	83.646784	1370.329567	9.892000	-4.960000
	83.746790	1370.290110	9.864000	-5.230000
	83.846796	1370.250654	9.818000	-5.230000
	83.946802	1370.250654	9.802000	-4.900000
	84.046807	1370.272179	9.804000	-4.720000
	84.146813	1370.306862	9.820000	-4.610000
	84.246819	1370.323604	9.854000	-4.760000
	84.346825	1370.304472	9.876000	-5.060000
	84.396827	1370.275775	9.882000	-5.140000
	84.546836	1370.275775	9.882000	-5.140000
	84.646842	1370.259035	9.840000	-5.040000
	84.746847	1370.253057	9.838000	-4.950000
	84.846853	1370.257840	9.798000	-4.860000
	84.946859	1370.284149	9.812000	-4.680000
	85.046865	1370.321225	9.834000	-4.590000
	85.146870	1370.343947	9.882000	-4.710000
	85.246876	1370.337968	9.886000	-4.950000
	85.350882	1370.309271	9.862000	-5.140000
	85.460888	1370.309271	9.862000	-5.140000
	85.546893	1370.278182	9.802000	-4.960000
	85.646899	1370.278182	9.802000	-4.960000
	85.747905	1370.286553	9.816000	-4.830000
	85.846910	1370.315255	9.830000	-4.660000
	85.946916	1370.343958	9.866000	-4.660000
	86.046922	1370.330804	9.908000	-5.010000
	86.148928	1370.322434	9.876000	-4.970000
	86.248933	1370.292541	9.850000	-5.150000
	86.360940	1370.274605	9.818000	-5.050000
	86.446945	1370.274605	9.818000	-5.050000
	86.546950	1370.259060	9.816000	-5.030000
	86.646956	1370.285370	9.820000	-4.680000
	86.746962	1370.306896	9.850000	-4.720000
	86.896970	1370.316463	9.890000	-4.820000
	86.996976	1370.296136	9.872000	-5.070000
	87.096982	1370.272221	9.824000	-5.100000
	87.196988	1370.257873	9.804000	-5.020000
	87.296993	1370.271027	9.810000	-4.790000
	87.396999	1370.287769	9.830000	-4.760000
	87.497005	1370.306903	9.870000	-4.740000
	87.597010	1370.318862	9.862000	-4.800000
	87.697016	1370.296143	9.844000	-5.090000
	87.797022	1370.282990	9.808000	-5.010000
	87.897027	1370.303320	9.826000	-4.730000
	87.997033	1370.303320	9.826000	-4.730000
	88.097039	1370.341592	9.850000	-4.580000
	88.147042	1370.335613	9.876000	-4.950000
	88.347053	1370.358335	9.862000	-4.710000
	88.447059	1370.352356	9.878000	-4.950000
	88.497062	1370.332028	9.870000	-5.070000
	88.647070	1370.308113	9.820000	-5.100000
	88.762077	1370.273439	9.834000	-5.190000
	88.847082	1370.281809	9.808000	-4.830000
	88.947088	1370.293768	9.780000	-4.800000
	89.048093	1370.312902	9.830000	-4.740000
	89.149099	1370.312902	9.830000	-4.740000
	89.264106	1370.339213	9.872000	-4.680000
	89.347110	1370.347584	9.896000	-4.830000
	89.447116	1370.324865	9.862000	-5.090000
	89.547122	1370.279430	9.846000	-5.280000
	89.647128	1370.267473	9.804000	-5.000000
	89.747133	1370.287802	9.814000	-4.730000
	89.847139	1370.324878	9.838000	-4.590000
	89.949145	1370.338032	9.892000	-4.790000
	90.052151	1370.316509	9.878000	-5.080000
	90.147156	1370.305747	9.876000	-4.990000
	90.247162	1370.284224	9.838000	-5.080000
	90.349168	1370.292595	9.822000	-4.830000
	90.448174	1370.317709	9.824000	-4.690000
	90.546179	1370.317709	9.824000	-4.690000
	90.646185	1370.342824	9.838000	-4.690000
	90.746191	1370.341628	9.880000	-4.910000
	90.846196	1370.321300	9.854000	-5.070000
	90.950202	1370.294994	9.824000	-5.120000
	91.046207	1370.287819	9.812000	-4.960000
	91.146214	1370.308150	9.806000	-4.730000
	91.246219	1370.323696	9.838000	-4.770000
	91.346225	1370.335655	9.888000	-4.800000
	91.448231	1370.320110	9.894000	-5.030000
	91.546236	1370.303369	9.878000	-5.040000
	91.646242	1370.277064	9.814000	-5.120000
	91.746248	1370.291414	9.794000	-4.780000
	91.846253	1370.317724	9.820000	-4.680000
	91.946259	1370.317724	9.820000	-4.680000
	92.046265	1370.333271	9.868000	-4.770000
	92.146271	1370.342838	9.894000	-4.820000
	92.246276	1370.302185	9.860000	-5.240000
	92.346282	1370.290227	9.832000	-5.000000
	92.446288	1370.300990	9.808000	-4.810000
	92.546293	1370.334477	9.836000	-4.620000
	92.646299	1370.338065	9.868000	-4.870000
	92.746305	1370.340456	9.880000	-4.880000
	92.846311	1370.318933	9.864000	-5.080000
	92.946316	1370.296214	9.820000	-5.090000
	93.048322	1370.309368	9.812000	-4.790000
	93.147328	1370.328503	9.822000	-4.740000
	93.246334	1370.339266	9.876000	-4.810000
	93.347339	1370.344049	9.876000	-4.860000
	93.446345	1370.322525	9.876000	-5.080000
	93.546350	1370.322525	9.876000	-5.080000
	93.646356	1370.298611	9.840000	-5.100000
	93.746362	1370.289045	9.802000	-4.980000
	93.846368	1370.311767	9.804000	-4.710000
	93.949374	1370.335685	9.856000	-4.700000
	94.046379	1370.338077	9.898000	-4.880000
	94.146385	1370.316554	9.858000	-5.080000
	94.246391	1370.293835	9.830000	-5.090000
	94.346396	1370.287856	9.816000	-4.950000
	94.446402	1370.308186	9.808000	-4.730000
	94.546408	1370.335693	9.844000	-4.670000
	94.646413	1370.350044	9.888000	-4.780000
	94.746419	1370.309390	9.866000	-5.240000
	94.846425	1370.286671	9.832000	-5.090000
	94.946431	1370.280692	9.814000	-4.950000
	95.046436	1370.309395	9.814000	-4.660000
	95.146442	1370.336901	9.860000	-4.670000
	95.246448	1370.336901	9.860000	-4.670000
	95.346454	1370.350056	9.884000	-4.790000
	95.446459	1370.329728	9.868000	-5.070000
	95.546465	1370.295053	9.828000	-5.190000
	95.646471	1370.280704	9.808000	-5.020000
	95.746477	1370.304622	9.806000	-4.700000
	95.846482	1370.328541	9.820000	-4.700000
	95.946488	1370.339304	9.880000	-4.810000
	96.046494	1370.321367	9.886000	-5.050000
	96.146499	1370.296257	9.846000	-5.110000
	96.246505	1370.272343	9.818000	-5.100000
	96.346511	1370.266364	9.812000	-4.950000
	96.446517	1370.302242	9.814000	-4.600000
	96.546522	1370.329749	9.856000	-4.670000
	96.646528	1370.335728	9.870000	-4.850000
	96.746534	1370.330945	9.886000	-4.940000
	96.846539	1370.330945	9.886000	-4.940000
	96.946545	1370.304639	9.844000	-5.120000
	97.046551	1370.302247	9.816000	-4.920000
	97.146556	1370.324970	9.824000	-4.710000
	97.246562	1370.344105	9.846000	-4.740000
	97.346568	1370.368024	9.884000	-4.700000
	97.446574	1370.357261	9.890000	-4.990000
	97.546579	1370.321390	9.854000	-5.200000
	97.646585	1370.286715	9.834000	-5.190000
	97.746591	1370.283127	9.810000	-4.930000
	97.846597	1370.296282	9.814000	-4.790000
	97.946602	1370.335750	9.838000	-4.570000
	98.046608	1370.356081	9.874000	-4.730000
	98.146614	1370.354885	9.888000	-4.910000
	98.246620	1370.316622	9.858000	-5.220000
	98.346625	1370.316622	9.858000	-5.220000
	98.446631	1370.293903	9.816000	-5.090000
	98.546637	1370.307058	9.796000	-4.790000
	98.646642	1370.328584	9.848000	-4.720000
	98.746648	1370.351307	9.858000	-4.710000
	98.846654	1370.358482	9.866000	-4.840000
	98.946660	1370.336959	9.864000	-5.080000
	99.046665	1370.314239	9.840000	-5.090000
	99.146671	1370.295107	9.820000	-5.060000
	99.246677	1370.285541	9.802000	-4.980000
	99.346683	1370.299892	9.814000	-4.780000
	99.446688	1370.339360	9.834000	-4.570000
	99.546694	1370.370455	9.872000	-4.640000
	99.646699	1370.362084	9.882000	-4.970000
	99.746706	1370.333386	9.856000	-5.140000
	99.846711	1370.305885	9.846000	-5.130000
	99.996720	1370.305885	9.846000	-5.130000
	100.096725	1370.299906	9.810000	-4.950000
	100.196731	1370.311864	9.788000	-4.800000
	100.296737	1370.335783	9.830000	-4.700000
	100.396742	1370.369271	9.858000	-4.620000
	100.496748	1370.388406	9.856000	-4.740000
	100.597754	1370.388406	9.878000	-4.900000
	100.696760	1370.366882	9.860000	-5.080000
	100.796765	1370.336988	9.844000	-5.150000
	100.896771	1370.315465	9.820000	-5.080000
	100.996777	1370.315465	9.820000	-5.080000
	101.096783	1370.320248	9.812000	-4.860000
	101.199789	1370.346559	9.834000	-4.680000
	101.296794	1370.370478	9.856000	-4.700000
	101.399800	1370.389614	9.870000	-4.740000
	101.496806	1370.376459	9.888000	-5.010000
	101.596811	1370.334610	9.862000	-5.250000
	101.696817	1370.321456	9.834000	-5.010000
	101.796823	1370.296346	9.818000	-5.110000
	101.896828	1370.315480	9.818000	-4.740000
	101.996834	1370.342987	9.832000	-4.670000
	102.096840	1370.380064	9.856000	-4.590000
	102.196846	1370.392023	9.876000	-4.800000
	102.296851	1370.392023	9.876000	-4.800000
	102.396857	1370.374086	9.856000	-5.050000
	102.496862	1370.352562	9.840000	-5.080000
	102.596869	1370.344191	9.806000	-4.970000
	102.696874	1370.356150	9.800000	-4.800000
	102.796880	1370.399208	9.842000	-4.540000
	102.896885	1370.427913	9.854000	-4.660000
	102.996891	1370.427913	9.874000	-4.900000
	103.096897	1370.415954	9.858000	-5.000000
	103.196903	1370.383668	9.834000	-5.170000
	103.296908	1370.376493	9.800000	-4.960000
	103.396914	1370.394432	9.812000	-4.750000
	103.496920	1370.414764	9.854000	-4.730000
	103.596926	1370.418352	9.880000	-4.870000
	103.696931	1370.398023	9.876000	-5.070000
	103.796937	1370.354977	9.834000	-5.260000
	103.896943	1370.354977	9.834000	-5.260000
	103.996948	1370.347802	9.810000	-4.960000
	104.096954	1370.353781	9.806000	-4.850000
	104.196960	1370.386073	9.822000	-4.630000
	104.296966	1370.402817	9.850000	-4.760000
	104.396971	1370.409992	9.876000	-4.840000
	104.496977	1370.390859	9.874000	-5.060000
	104.596983	1370.358574	9.842000	-5.170000
	104.697989	1370.337050	9.820000	-5.080000
	104.796994	1370.320309	9.818000	-5.040000
	104.897000	1370.341836	9.804000	-4.720000
	104.997005	1370.371735	9.826000	-4.650000
	105.097012	1370.393263	9.854000	-4.720000
	105.197017	1370.386088	9.870000	-4.960000
	105.297023	1370.386088	9.870000	-4.960000
	105.397028	1370.369346	9.868000	-5.040000
	105.497034	1370.363367	9.830000	-4.950000
	105.602040	1370.343039	9.808000	-5.070000
	105.697046	1370.352606	9.816000	-4.820000
	105.797051	1370.389683	9.814000	-4.590000
	105.913058	1370.411211	9.836000	-4.720000
	105.997063	1370.420778	9.872000	-4.820000
	106.097068	1370.430346	9.882000	-4.820000
	106.197074	1370.398059	9.874000	-5.170000
	106.297080	1370.368165	9.844000	-5.150000
	106.397086	1370.370557	9.794000	-4.880000
	106.497091	1370.390888	9.814000	-4.730000
	106.597097	1370.417200	9.824000	-4.680000
	106.747106	1370.429160	9.872000	-4.800000
	106.847111	1370.439924	9.882000	-4.810000
	106.947117	1370.402855	9.860000	-5.210000
	107.047123	1370.370569	9.832000	-5.170000
	107.147129	1370.370569	9.832000	-5.170000
	107.197132	1370.346653	9.822000	-5.100000
	107.347140	1370.353829	9.790000	-4.840000
	107.447146	1370.365788	9.822000	-4.800000
	107.547152	1370.390903	9.842000	-4.690000
	107.649158	1370.404059	9.874000	-4.790000
	107.749163	1370.387317	9.858000	-5.040000
	107.846169	1370.375359	9.832000	-5.000000
	107.946174	1370.339487	9.810000	-5.200000
	108.046180	1370.321550	9.802000	-5.050000
	108.146186	1370.340685	9.804000	-4.740000
	108.246192	1370.377762	9.814000	-4.590000
	108.346197	1370.406466	9.842000	-4.660000
	108.446203	1370.424406	9.898000	-4.750000
	108.546209	1370.405272	9.888000	-5.060000
	108.646214	1370.374182	9.862000	-5.160000
	108.746220	1370.358637	9.838000	-5.030000
	108.846226	1370.358637	9.838000	-5.030000
	108.946231	1370.345483	9.806000	-5.010000
	109.046237	1370.345483	9.800000	-4.900000
	109.146243	1370.358638	9.800000	-4.790000
	109.246249	1370.378969	9.818000	-4.730000
	109.346254	1370.410066	9.846000	-4.640000
	109.446260	1370.426809	9.876000	-4.760000
	109.546266	1370.414851	9.874000	-5.000000
	109.646272	1370.400500	9.862000	-5.020000
	109.746277	1370.367019	9.836000	-5.180000
	109.846283	1370.357452	9.814000	-4.980000
	109.948289	1370.359844	9.812000	-4.880000
	110.046294	1370.381371	9.810000	-4.720000
	110.146300	1370.414861	9.846000	-4.620000
	110.246306	1370.453136	9.866000	-4.580000
	110.346312	1370.467488	9.884000	-4.780000
	110.446317	1370.467488	9.884000	-4.780000
	110.546323	1370.442375	9.884000	-5.110000
	110.646329	1370.426828	9.868000	-5.030000
	110.746335	1370.404108	9.828000	-5.090000
	110.846340	1370.388562	9.810000	-5.030000
	110.946346	1370.374212	9.784000	-5.020000
	111.046351	1370.380191	9.812000	-4.850000
	111.146358	1370.407700	9.814000	-4.670000
	111.246363	1370.432816	9.834000	-4.690000
	111.346369	1370.430424	9.860000	-4.920000
	111.446374	1370.429228	9.888000	-4.910000
	111.546380	1370.418465	9.882000	-4.990000
	111.646386	1370.395745	9.866000	-5.090000
	111.746392	1370.379003	9.822000	-5.040000
	111.846397	1370.367045	9.818000	-5.000000
	111.946403	1370.369437	9.796000	-4.880000
	112.046409	1370.369437	9.796000	-4.880000
	112.146415	1370.395748	9.794000	-4.680000
	112.246420	1370.418472	9.840000	-4.710000
	112.346426	1370.431628	9.872000	-4.790000
	112.446432	1370.435216	9.892000	-4.870000
	112.546437	1370.428041	9.870000	-4.960000
	112.646443	1370.418474	9.866000	-4.980000
	112.746449	1370.395753	9.818000	-5.090000
	112.846455	1370.376620	9.836000	-5.060000
	112.946460	1370.373032	9.824000	-4.930000
	113.046466	1370.356291	9.802000	-5.040000
	113.146472	1370.364662	9.796000	-4.830000
	113.246478	1370.390974	9.820000	-4.680000
	113.346483	1370.418483	9.848000	-4.670000
	113.446489	1370.418483	9.848000	-4.670000
	113.546494	1370.430442	9.870000	-4.800000
	113.646500	1370.431638	9.894000	-4.890000
	113.746506	1370.419679	9.892000	-5.000000
	113.846512	1370.377828	9.850000	-5.250000
	113.946517	1370.356304	9.800000	-5.080000
	114.046523	1370.355108	9.804000	-4.910000
	114.146529	1370.381420	9.820000	-4.680000
	114.246535	1370.412516	9.812000	-4.640000
	114.347540	1370.440025	9.868000	-4.670000
	114.446546	1370.454377	9.886000	-4.780000
	114.546552	1370.437635	9.880000	-5.040000
	114.646557	1370.418501	9.834000	-5.060000
	114.747563	1370.404151	9.848000	-5.020000
	114.847569	1370.381431	9.812000	-5.090000
	114.946575	1370.383822	9.806000	-4.880000
	115.046580	1370.383822	9.806000	-4.880000
	115.146586	1370.390998	9.824000	-4.840000
	115.246592	1370.420899	9.838000	-4.650000
	115.346598	1370.446015	9.848000	-4.690000
	115.446603	1370.462760	9.880000	-4.760000
	115.546609	1370.465152	9.888000	-4.880000
	115.646615	1370.435256	9.876000	-5.150000
	115.746621	1370.406556	9.838000	-5.140000
	115.846626	1370.386227	9.826000	-5.070000
	115.946632	1370.386227	9.818000	-4.900000
	116.047637	1370.412539	9.812000	-4.680000
	116.146643	1370.438852	9.826000	-4.680000
	116.246649	1370.454400	9.848000	-4.770000
	116.346655	1370.456792	9.864000	-4.880000
	116.446661	1370.442441	9.886000	-5.020000
	116.546666	1370.423308	9.854000	-5.060000
	116.646672	1370.401783	9.822000	-5.080000
	116.746677	1370.404175	9.810000	-4.880000
	116.846684	1370.404175	9.810000	-4.880000
	116.946689	1370.408958	9.814000	-4.860000
	117.046695	1370.435271	9.842000	-4.680000
	117.146700	1370.461584	9.832000	-4.680000
	117.246706	1370.483113	9.864000	-4.720000
	117.346712	1370.491485	9.880000	-4.830000
	117.446718	1370.475938	9.870000	-5.030000
	117.546723	1370.438868	9.850000	-5.210000
	117.646729	1370.407777	9.818000	-5.160000
	117.748735	1370.405385	9.804000	-4.920000
	117.846741	1370.430502	9.788000	-4.690000
	117.946746	1370.455618	9.840000	-4.690000
	118.046752	1370.465186	9.876000	-4.820000
	118.146758	1370.467578	9.876000	-4.880000
	118.246763	1370.444857	9.876000	-5.090000
	118.346769	1370.422136	9.844000	-5.090000
	118.446775	1370.422136	9.844000	-5.090000
	118.546781	1370.395828	9.828000	-5.120000
	118.646786	1370.401808	9.826000	-4.850000
	118.746792	1370.423336	9.816000	-4.720000
	118.846798	1370.440080	9.828000	-4.760000
	118.946804	1370.484337	9.848000	-4.530000
	119.046809	1370.487925	9.862000	-4.870000
	119.146815	1370.481945	9.860000	-4.950000
	119.246820	1370.460419	9.884000	-5.080000
	119.346827	1370.437698	9.864000	-5.090000
	119.446832	1370.404216	9.850000	-5.180000
	119.546838	1370.380300	9.816000	-5.100000
	119.646843	1370.386279	9.820000	-4.850000
	119.746849	1370.404219	9.824000	-4.750000
	119.846855	1370.429335	9.838000	-4.690000
	119.946861	1370.429335	9.838000	-4.690000
	120.046866	1370.442491	9.862000	-4.790000
	120.146872	1370.455647	9.864000	-4.790000
	120.246878	1370.454451	9.892000	-4.910000
	120.346883	1370.418577	9.884000	-5.200000
	120.446889	1370.388682	9.856000	-5.150000
	120.546895	1370.369549	9.824000	-5.060000
	120.646901	1370.345634	9.826000	-5.100000
	120.746906	1370.354005	9.810000	-4.830000
	120.846912	1370.376728	9.824000	-4.710000
	120.946918	1370.409021	9.822000	-4.630000
	121.046924	1370.434137	9.840000	-4.690000
	121.146929	1370.459254	9.830000	-4.690000
	121.246935	1370.467626	9.874000	-4.830000
	121.354941	1370.475998	9.878000	-4.830000
	121.446947	1370.473606	9.882000	-4.920000
	121.546952	1370.465235	9.872000	-4.970000
	121.646958	1370.465235	9.872000	-4.970000
	121.746964	1370.441318	9.882000	-5.100000
	121.846969	1370.419792	9.870000	-5.080000
	121.946975	1370.400659	9.818000	-5.060000
	122.046981	1370.379134	9.830000	-5.080000
	122.146986	1370.361197	9.792000	-5.050000
	122.246992	1370.364785	9.824000	-4.870000
	122.346998	1370.377940	9.798000	-4.790000
	122.447004	1370.398272	9.802000	-4.730000
	122.547009	1370.426976	9.820000	-4.660000
	122.647015	1370.455682	9.848000	-4.660000
	122.747021	1370.474818	9.854000	-4.740000
	122.847026	1370.484386	9.872000	-4.820000
	122.947032	1370.490366	9.890000	-4.850000
	123.047038	1370.501131	9.870000	-4.810000
	123.147044	1370.501131	9.870000	-4.810000
	123.247049	1370.495151	9.890000	-4.950000
	123.347055	1370.487975	9.872000	-4.960000
	123.447061	1370.481995	9.882000	-4.950000
	123.547067	1370.466449	9.870000	-5.030000
	123.647072	1370.437748	9.862000	-5.140000
	123.747078	1370.407853	9.850000	-5.150000
	123.847084	1370.388720	9.850000	-5.060000
	123.947089	1370.370783	9.838000	-5.050000
	124.047095	1370.362412	9.840000	-4.970000
	124.147101	1370.352845	9.828000	-4.980000
	124.247107	1370.349258	9.838000	-4.930000
	124.347112	1370.350454	9.832000	-4.890000
	124.447118	1370.361217	9.828000	-4.810000
	124.547124	1370.369588	9.788000	-4.830000
	124.647130	1370.371980	9.806000	-4.880000
	124.747135	1370.371980	9.806000	-4.880000
	124.847141	1370.391115	9.808000	-4.740000
	124.947146	1370.415035	9.812000	-4.700000
	125.047153	1370.436563	9.806000	-4.720000
	125.147158	1370.456896	9.818000	-4.730000
	125.247164	1370.477229	9.816000	-4.730000
	125.346169	1370.499954	9.818000	-4.710000
	125.446175	1370.514307	9.834000	-4.780000
	125.546181	1370.534640	9.856000	-4.730000
	125.646187	1370.539424	9.836000	-4.860000
	125.746192	1370.543012	9.842000	-4.870000
	125.846198	1370.520290	9.850000	-5.090000
	125.946204	1370.511918	9.882000	-4.970000
	126.046209	1370.508330	9.864000	-4.930000
	126.146215	1370.507134	9.870000	-4.910000
	126.246221	1370.508330	9.900000	-4.890000
	126.346227	1370.508330	9.900000	-4.890000
	126.446232	1370.496371	9.872000	-5.000000
	126.546238	1370.479628	9.856000	-5.040000
	126.646244	1370.443753	9.880000	-5.200000
	126.746250	1370.431794	9.846000	-5.000000
	126.846255	1370.413856	9.864000	-5.050000
	126.946261	1370.416248	9.866000	-4.880000
	127.046267	1370.407877	9.864000	-4.970000
	127.146273	1370.399506	9.838000	-4.970000
	127.246278	1370.387548	9.842000	-5.000000
	127.346284	1370.370806	9.842000	-5.040000
	127.446290	1370.354065	9.840000	-5.040000
	127.546295	1370.350477	9.868000	-4.930000
	127.646301	1370.358849	9.836000	-4.830000
	127.753307	1370.358849	9.836000	-4.830000
	127.846313	1370.348086	9.854000	-4.990000
	127.946318	1370.346890	9.840000	-4.910000
	128.046324	1370.342107	9.854000	-4.940000
	128.146329	1370.351674	9.858000	-4.820000
	128.246336	1370.339716	9.844000	-5.000000
	128.346341	1370.345695	9.870000	-4.850000
	128.496350	1370.340912	9.842000	-4.940000
	128.596355	1370.339716	9.852000	-4.910000
	128.646358	1370.348087	9.850000	-4.830000
	128.796367	1370.348087	9.864000	-4.900000
	128.896372	1370.356459	9.854000	-4.830000
	128.996378	1370.357655	9.834000	-4.890000
	129.096384	1370.349284	9.822000	-4.970000
	129.196390	1370.345696	9.852000	-4.930000
	129.296395	1370.330151	9.854000	-5.030000
	129.396401	1370.330151	9.854000	-5.030000
	129.496407	1370.332543	9.816000	-4.880000
	129.596413	1370.327759	9.832000	-4.940000
	129.696418	1370.324172	9.842000	-4.930000
	129.796424	1370.332543	9.842000	-4.830000
	129.896430	1370.328956	9.832000	-4.930000
	129.996436	1370.321781	9.824000	-4.960000
	130.096441	1370.324172	9.828000	-4.880000
	130.146444	1370.324172	9.832000	-4.900000
	130.296453	1370.320585	9.810000	-4.930000
	130.396458	1370.319389	9.838000	-4.910000
	130.496464	1370.327760	9.826000	-4.830000
	130.596470	1370.319390	9.836000	-4.970000
	130.699476	1370.318194	9.824000	-4.910000
	130.796481	1370.330153	9.830000	-4.800000
	130.896487	1370.330153	9.830000	-4.800000
	130.996493	1370.322978	9.854000	-4.960000
	131.096498	1370.322978	9.846000	-4.900000
	131.196504	1370.322978	9.856000	-4.900000
	131.296510	1370.322978	9.868000	-4.900000
	131.396515	1370.330153	9.860000	-4.840000
	131.496521	1370.358856	9.870000	-4.660000
	131.596527	1370.379188	9.880000	-4.730000
	131.696533	1370.382775	9.856000	-4.870000
	131.796538	1370.382775	9.856000	-4.870000
	131.896544	1370.406695	9.878000	-4.870000
	131.996550	1370.406695	9.878000	-4.870000
	132.099555	1370.409086	9.888000	-4.880000
	132.196561	1370.428222	9.864000	-4.740000
	132.296567	1370.461713	9.872000	-4.620000
	132.396573	1370.472477	9.866000	-4.810000
	132.496578	1370.479653	9.886000	-4.840000
	132.604585	1370.497593	9.862000	-4.750000
	132.696590	1370.513142	9.878000	-4.770000
	132.797596	1370.528691	9.860000	-4.770000
	132.896601	1370.528691	9.860000	-4.770000
	132.999607	1370.534671	9.858000	-4.850000
	133.099613	1370.528691	9.862000	-4.950000
	133.196619	1370.539456	9.864000	-4.810000
	133.296624	1370.552613	9.862000	-4.790000
	133.396630	1370.575339	9.860000	-4.710000
	133.496635	1370.583712	9.828000	-4.830000
	133.608642	1370.581320	9.860000	-4.920000
	133.696647	1370.581320	9.844000	-4.900000
	133.796653	1370.576536	9.860000	-4.940000
	133.896658	1370.576536	9.860000	-4.940000
	133.996664	1370.578928	9.844000	-4.880000
	134.096670	1370.583712	9.858000	-4.860000
	134.196676	1370.588496	9.852000	-4.860000
	134.296681	1370.584908	9.860000	-4.930000
	134.396687	1370.584908	9.864000	-4.900000
	134.498693	1370.570556	9.858000	-5.020000
	134.597699	1370.572948	9.848000	-4.880000
	134.696704	1370.574144	9.852000	-4.890000
	134.796710	1370.577732	9.858000	-4.870000
	134.896716	1370.577732	9.858000	-4.870000
	135.046724	1370.569360	9.850000	-4.970000
	135.146730	1370.566968	9.866000	-4.920000
	135.246736	1370.570556	9.858000	-4.870000
	135.346742	1370.574145	9.862000	-4.870000
	135.446747	1370.569361	9.858000	-4.940000
	135.546753	1370.566968	9.854000	-4.920000
	135.646759	1370.560988	9.858000	-4.950000
	135.746764	1370.577734	9.862000	-4.760000
	135.846770	1370.578930	9.888000	-4.890000
	135.896773	1370.578930	9.888000	-4.890000
	136.046782	1370.577734	9.864000	-4.910000
	136.146787	1370.581322	9.842000	-4.870000
	136.246793	1370.593283	9.868000	-4.800000
	136.346799	1370.594479	9.852000	-4.890000
	136.446805	1370.595675	9.874000	-4.890000
	136.546810	1370.596872	9.852000	-4.890000
	136.646816	1370.594479	9.870000	-4.920000
	136.746821	1370.595675	9.862000	-4.890000
	136.846828	1370.598068	9.866000	-4.880000
	136.946833	1370.598068	9.866000	-4.880000
	137.046839	1370.595676	9.870000	-4.920000
	137.146844	1370.604048	9.864000	-4.830000
	137.247850	1370.599264	9.878000	-4.940000
	137.346856	1370.577736	9.904000	-5.080000
	137.446862	1370.566972	9.878000	-4.990000
	137.546867	1370.564580	9.896000	-4.920000
	137.646873	1370.549032	9.880000	-5.030000
	137.746879	1370.544248	9.876000	-4.940000
	137.852885	1370.527505	9.884000	-5.040000
	137.946890	1370.527505	9.884000	-5.040000
	138.046896	1370.507174	9.880000	-5.070000
	138.146902	1370.503586	9.872000	-4.930000
	138.246907	1370.508370	9.878000	-4.860000
	138.346913	1370.495215	9.872000	-5.010000
	138.446919	1370.488039	9.880000	-4.960000
	138.546925	1370.472493	9.858000	-5.030000
	138.646930	1370.459338	9.870000	-5.010000
	138.746936	1370.444987	9.868000	-5.020000
	138.846942	1370.446183	9.862000	-4.890000
	138.946948	1370.446183	9.862000	-4.890000
	139.046953	1370.441399	9.854000	-4.940000
	139.146959	1370.448575	9.888000	-4.840000
	139.246964	1370.446183	9.882000	-4.920000
	139.346971	1370.435420	9.886000	-4.990000
	139.446976	1370.423461	9.866000	-5.000000
	139.546982	1370.437813	9.888000	-4.780000
	139.646987	1370.437813	9.888000	-4.900000
	139.747993	1370.448577	9.862000	-4.810000
	139.846999	1370.474890	9.860000	-4.680000
	139.947005	1370.474890	9.876000	-4.900000
	140.047010	1370.474890	9.876000	-4.900000
	140.147016	1370.462931	9.858000	-5.000000
	140.247022	1370.485656	9.860000	-4.710000
	140.347027	1370.507186	9.888000	-4.720000
	140.447033	1370.514362	9.874000	-4.840000
	140.547039	1370.527518	9.866000	-4.790000
	140.647045	1370.533499	9.856000	-4.850000
	140.755051	1370.522735	9.870000	-4.990000
	140.847056	1370.533499	9.896000	-4.810000
	140.947062	1370.533499	9.896000	-4.810000
	141.047068	1370.550245	9.860000	-4.760000
	141.148073	1370.556225	9.870000	-4.850000
	141.247079	1370.550245	9.870000	-4.950000
	141.347085	1370.549049	9.858000	-4.910000
	141.447091	1370.549049	9.854000	-4.900000
	141.547096	1370.559814	9.852000	-4.810000
	141.647102	1370.565794	9.864000	-4.850000
	141.747108	1370.588521	9.862000	-4.710000
	141.847113	1370.589717	9.848000	-4.890000
	141.947119	1370.595697	9.854000	-4.850000
	142.047125	1370.595697	9.854000	-4.850000
	142.147130	1370.596893	9.842000	-4.890000
	142.247136	1370.587325	9.848000	-4.980000
	142.347142	1370.592109	9.848000	-4.860000
	142.447148	1370.588521	9.826000	-4.930000
	142.547153	1370.587325	9.830000	-4.910000
	142.654160	1370.588521	9.824000	-4.890000
	142.747165	1370.582541	9.832000	-4.950000
	142.846170	1370.574169	9.828000	-4.970000
	142.946176	1370.574169	9.828000	-4.970000
	143.046182	1370.557425	9.810000	-5.040000
	143.196190	1370.553837	9.808000	-4.930000
	143.296196	1370.541877	9.814000	-5.000000
	143.396202	1370.502414	9.826000	-5.230000
	143.496208	1370.489258	9.826000	-5.010000
	143.596213	1370.472516	9.832000	-5.040000
	143.696219	1370.442620	9.812000	-5.150000
	143.796225	1370.430661	9.838000	-5.000000
	143.896231	1370.416310	9.850000	-5.020000
	143.996236	1370.406744	9.856000	-4.980000
	144.096242	1370.406744	9.856000	-4.980000
	144.196248	1370.399568	9.866000	-4.960000
	144.296253	1370.401960	9.878000	-4.880000
	144.396259	1370.415116	9.854000	-4.790000
	144.496265	1370.443821	9.870000	-4.660000
	144.596271	1370.477311	9.856000	-4.620000
	144.696276	1370.504821	9.856000	-4.670000
	144.796282	1370.520370	9.846000	-4.770000
	144.900288	1370.544293	9.848000	-4.700000
	144.996294	1370.544293	9.848000	-4.700000
	145.096299	1370.533529	9.814000	-4.990000
	145.196305	1370.526353	9.812000	-4.960000
	145.296310	1370.517981	9.810000	-4.970000
	145.405317	1370.508413	9.806000	-4.980000
	145.496322	1370.489279	9.822000	-5.060000
	145.596328	1370.468949	9.828000	-5.070000
	145.696333	1370.435465	9.812000	-5.180000
	145.796339	1370.418723	9.854000	-5.040000
	145.896345	1370.398394	9.856000	-5.070000
	145.996351	1370.394807	9.860000	-4.930000
	146.096356	1370.394807	9.860000	-4.930000
	146.196362	1370.407962	9.874000	-4.790000
	146.296368	1370.425902	9.872000	-4.750000
	146.396374	1370.448626	9.872000	-4.710000
	146.496379	1370.479725	9.850000	-4.640000
	146.596385	1370.500058	9.846000	-4.730000
	146.696391	1370.528765	9.842000	-4.660000
	146.796396	1370.533549	9.828000	-4.860000
	146.898402	1370.537137	9.824000	-4.870000
	146.999408	1370.533549	9.796000	-4.930000
	147.096414	1370.533549	9.796000	-4.930000
	147.196419	1370.523981	9.816000	-4.980000
	147.296425	1370.512021	9.812000	-5.000000
	147.396430	1370.501258	9.834000	-4.990000
	147.498436	1370.478536	9.808000	-5.090000
	147.596442	1370.461793	9.802000	-5.040000
	147.696448	1370.452226	9.826000	-4.980000
	147.797453	1370.437875	9.862000	-5.020000
	147.896459	1370.417546	9.860000	-5.070000
	147.996465	1370.417546	9.860000	-5.070000
	148.096471	1370.422330	9.886000	-4.860000
	148.196476	1370.419938	9.870000	-4.920000
	148.296482	1370.430702	9.878000	-4.810000
	148.396488	1370.443857	9.876000	-4.790000
	148.496494	1370.467778	9.866000	-4.700000
	148.596499	1370.485719	9.864000	-4.750000
	148.696505	1370.520407	9.874000	-4.610000
	148.798511	1370.544329	9.864000	-4.700000
	148.896516	1370.553898	9.824000	-4.820000
	148.996522	1370.553898	9.824000	-4.820000
	149.096528	1370.557486	9.818000	-4.870000
	149.196534	1370.558682	9.820000	-4.890000
	149.296539	1370.568251	9.804000	-4.820000
	149.396545	1370.574231	9.804000	-4.850000
	149.496551	1370.570643	9.788000	-4.930000
	149.596557	1370.553899	9.812000	-5.040000
	149.696562	1370.543135	9.800000	-4.990000
	149.804568	1370.524000	9.790000	-5.060000
	149.896574	1370.500082	9.812000	-5.100000
	149.996580	1370.480948	9.826000	-5.060000
	150.096585	1370.480948	9.826000	-5.060000
	150.196591	1370.477360	9.816000	-4.930000
	150.296597	1370.448659	9.826000	-5.140000
	150.396602	1370.431917	9.836000	-5.040000
	150.496608	1370.409196	9.838000	-5.090000
	150.646616	1370.400825	9.852000	-4.970000
	150.746623	1370.392454	9.836000	-4.970000
	150.846628	1370.399630	9.868000	-4.840000
	150.946634	1370.406805	9.878000	-4.840000
	151.046639	1370.413981	9.884000	-4.840000
	151.096642	1370.434313	9.876000	-4.730000
	151.246651	1370.434313	9.876000	-4.730000
	151.346657	1370.454645	9.870000	-4.730000
	151.446662	1370.478566	9.852000	-4.700000
	151.546668	1370.502488	9.854000	-4.700000
	151.646674	1370.526410	9.830000	-4.700000
	151.746679	1370.549136	9.828000	-4.710000
	151.846685	1370.551528	9.830000	-4.880000
	151.946691	1370.546744	9.834000	-4.940000
	152.046697	1370.555117	9.792000	-4.830000
	152.149703	1370.555117	9.792000	-4.830000
	152.246708	1370.551529	9.810000	-4.930000
	152.346714	1370.534785	9.800000	-5.040000
	152.446720	1370.520434	9.800000	-5.020000
	152.546725	1370.509670	9.818000	-4.990000
	152.646731	1370.477382	9.834000	-5.170000
	152.746737	1370.454660	9.840000	-5.090000
	152.846743	1370.442701	9.858000	-5.000000
	152.946748	1370.441505	9.858000	-4.910000
	153.046754	1370.447485	9.860000	-4.850000
	153.146760	1370.448681	9.894000	-4.890000
	153.246765	1370.448681	9.894000	-4.890000
	153.346771	1370.463033	9.884000	-4.780000
	153.446777	1370.479777	9.878000	-4.760000
	153.546782	1370.498914	9.878000	-4.740000
	153.646788	1370.518052	9.868000	-4.740000
	153.746794	1370.533600	9.858000	-4.770000
	153.846800	1370.543169	9.832000	-4.820000
	153.946805	1370.550345	9.800000	-4.840000
	154.048811	1370.540777	9.814000	-4.980000
	154.146817	1370.538385	9.794000	-4.920000
	154.246822	1370.538385	9.794000	-4.920000
	154.346828	1370.520446	9.804000	-5.050000
	154.446834	1370.496528	9.812000	-5.100000
	154.546840	1370.463044	9.810000	-5.180000
	154.646845	1370.445106	9.824000	-5.050000
	154.746851	1370.406841	9.864000	-5.220000
	154.846857	1370.392491	9.848000	-5.020000
	154.946863	1370.402058	9.870000	-4.820000
	155.055869	1370.412822	9.878000	-4.810000
	155.146874	1370.436742	9.876000	-4.700000
	155.246880	1370.436742	9.876000	-4.700000
	155.346885	1370.476214	9.874000	-4.570000
	155.446891	1370.495351	9.858000	-4.740000
	155.546897	1370.510900	9.814000	-4.770000
	155.646903	1370.526449	9.810000	-4.770000
	155.746908	1370.532429	9.820000	-4.850000
	155.846914	1370.518077	9.814000	-5.020000
	155.948920	1370.491768	9.822000	-5.120000
	156.046926	1370.458284	9.840000	-5.180000
	156.146931	1370.442738	9.850000	-5.030000
	156.246937	1370.436758	9.848000	-4.950000
	156.346942	1370.436758	9.848000	-4.950000
	156.446949	1370.435562	9.854000	-4.910000
	156.546954	1370.422407	9.872000	-5.010000
	156.646960	1370.430779	9.876000	-4.830000
	156.746965	1370.460681	9.868000	-4.650000
	156.846971	1370.488191	9.864000	-4.670000
	156.948977	1370.514505	9.848000	-4.680000
	157.046983	1370.512113	9.834000	-4.920000
	157.146988	1370.520485	9.822000	-4.830000
	157.246994	1370.515701	9.808000	-4.940000
	157.400003	1370.515701	9.808000	-4.940000
	157.497008	1370.482217	9.802000	-5.180000
	157.597014	1370.459495	9.826000	-5.090000
	157.697020	1370.443949	9.836000	-5.030000
	157.797026	1370.431990	9.840000	-5.000000
	157.897031	1370.422423	9.838000	-4.980000
	157.997037	1370.422423	9.858000	-4.900000
	158.097043	1370.421227	9.876000	-4.910000
	158.197049	1370.415247	9.868000	-4.950000
	158.297054	1370.423619	9.868000	-4.830000
	158.398060	1370.421227	9.886000	-4.920000
	158.497066	1370.429599	9.886000	-4.830000
	158.597071	1370.437971	9.868000	-4.830000
	158.697077	1370.451126	9.874000	-4.790000
	158.797083	1370.473851	9.870000	-4.710000
	158.897089	1370.478635	9.856000	-4.860000
	158.997094	1370.492988	9.870000	-4.780000
	159.097100	1370.492988	9.870000	-4.780000
	159.197105	1370.525283	9.854000	-4.630000
	159.299111	1370.542028	9.856000	-4.760000
	159.397117	1370.564755	9.842000	-4.710000
	159.497123	1370.579108	9.850000	-4.780000
	159.597128	1370.588677	9.852000	-4.820000
	159.697134	1370.592265	9.846000	-4.870000
	159.797140	1370.592265	9.828000	-4.900000
	159.897146	1370.598246	9.820000	-4.850000
	159.997151	1370.579110	9.798000	-5.060000
	160.097157	1370.569542	9.814000	-4.980000
	160.197163	1370.558778	9.822000	-4.990000
	160.296168	1370.550406	9.816000	-4.970000
	160.396174	1370.527683	9.808000	-5.090000
	160.496180	1370.527683	9.808000	-5.090000
	160.596186	1370.504960	9.820000	-5.090000
	160.696191	1370.469085	9.824000	-5.200000
	160.796197	1370.447559	9.840000	-5.080000
	160.896203	1370.440384	9.846000	-4.960000
	160.996209	1370.437992	9.838000	-4.920000
	161.096214	1370.426033	9.834000	-5.000000
	161.196220	1370.440385	9.884000	-4.780000
	161.296226	1370.447561	9.874000	-4.840000
	161.396232	1370.457129	9.884000	-4.820000
	161.496237	1370.473873	9.880000	-4.760000
	161.596243	1370.494206	9.888000	-4.730000
	161.696249	1370.521717	9.866000	-4.670000
	161.797255	1370.538462	9.864000	-4.760000
	161.896260	1370.556403	9.848000	-4.750000
	161.996266	1370.556403	9.848000	-4.750000
	162.096272	1370.570756	9.800000	-4.780000
	162.197277	1370.583914	9.802000	-4.790000
	162.296283	1370.580325	9.830000	-4.930000
	162.396288	1370.582718	9.808000	-4.880000
	162.496294	1370.563582	9.816000	-5.060000
	162.596300	1370.544447	9.824000	-5.060000
	162.696306	1370.512157	9.816000	-5.170000
	162.796311	1370.489435	9.846000	-5.090000
	162.896317	1370.459539	9.838000	-5.150000
	162.996323	1370.439209	9.856000	-5.070000
	163.099329	1370.436817	9.846000	-4.920000
	163.196334	1370.429642	9.860000	-4.960000
	163.296340	1370.439210	9.876000	-4.820000
	163.396346	1370.439210	9.876000	-4.820000
	163.496352	1370.449974	9.868000	-4.810000
	163.596357	1370.461933	9.874000	-4.800000
	163.696363	1370.470305	9.888000	-4.830000
	163.796369	1370.493031	9.848000	-4.710000
	163.896374	1370.514560	9.852000	-4.720000
	163.996380	1370.530109	9.842000	-4.770000
	164.099386	1370.549247	9.832000	-4.740000
	164.196392	1370.556423	9.816000	-4.840000
	164.296397	1370.565992	9.844000	-4.820000
	164.396403	1370.554032	9.816000	-5.000000
	164.496409	1370.533700	9.820000	-5.070000
	164.596415	1370.507391	9.836000	-5.120000
	164.696420	1370.491843	9.832000	-5.030000
	164.796426	1370.476297	9.834000	-5.030000
	164.896431	1370.472709	9.846000	-4.930000
	164.998437	1370.463141	9.848000	-4.980000
	165.096443	1370.463141	9.848000	-4.980000
	165.196449	1370.448791	9.876000	-5.020000
	165.296454	1370.464339	9.868000	-4.770000
	165.396460	1370.472711	9.880000	-4.830000
	165.496466	1370.507398	9.850000	-4.610000
	165.596472	1370.518163	9.814000	-4.810000
	165.696477	1370.524143	9.814000	-4.850000
	165.796483	1370.521751	9.822000	-4.920000
	165.896489	1370.483484	9.828000	-5.220000
	166.008495	1370.465545	9.854000	-5.050000
	166.096500	1370.461957	9.862000	-4.930000
	166.196506	1370.461957	9.862000	-4.930000
	166.296512	1370.479898	9.878000	-4.750000
	166.396517	1370.497839	9.850000	-4.750000
	166.496523	1370.522957	9.844000	-4.690000
	166.596529	1370.528937	9.818000	-4.850000
	166.696535	1370.527741	9.816000	-4.910000
	166.809541	1370.502627	9.802000	-5.110000
	166.896546	1370.484688	9.830000	-5.050000
	166.996552	1370.470337	9.878000	-5.020000
	167.096558	1370.466749	9.868000	-4.930000
	167.196563	1370.466749	9.868000	-4.930000
	167.296569	1370.488278	9.872000	-4.720000
	167.396574	1370.518181	9.870000	-4.650000
	167.496580	1370.526554	9.824000	-4.830000
	167.596586	1370.518182	9.806000	-4.970000
	167.696592	1370.500243	9.826000	-5.050000
	167.796597	1370.478717	9.816000	-5.080000
	167.904604	1370.471541	9.862000	-4.960000
	167.996609	1370.467953	9.874000	-4.930000
	168.096615	1370.506230	9.866000	-4.580000
	168.197620	1370.506230	9.866000	-4.580000
	168.296626	1370.531348	9.844000	-4.690000
	168.396632	1370.538524	9.830000	-4.840000
	168.496637	1370.530152	9.806000	-4.970000
	168.596643	1370.509821	9.826000	-5.070000
	168.696649	1370.488295	9.852000	-5.080000
	168.796655	1370.475140	9.870000	-5.010000
	168.896660	1370.471552	9.898000	-4.930000
	168.996666	1370.478728	9.858000	-4.840000
	169.096672	1370.500257	9.854000	-4.720000
	169.196678	1370.500257	9.854000	-4.720000
	169.296683	1370.521787	9.818000	-4.720000
	169.396689	1370.518199	9.824000	-4.930000
	169.496695	1370.495477	9.838000	-5.090000
	169.596701	1370.470363	9.834000	-5.110000
	169.696706	1370.470363	9.878000	-4.900000
	169.801712	1370.479931	9.872000	-4.820000
	169.896718	1370.493088	9.866000	-4.790000
	169.996723	1370.517009	9.850000	-4.700000
	170.096729	1370.517009	9.850000	-4.700000
	170.196735	1370.502658	9.814000	-5.020000
	170.346744	1370.500266	9.822000	-4.920000
	170.446749	1370.473957	9.824000	-5.120000
	170.546755	1370.465585	9.836000	-4.970000
	170.646760	1370.456018	9.876000	-4.980000
	170.746766	1370.458410	9.882000	-4.880000
	170.846772	1370.494293	9.868000	-4.600000
	170.946778	1370.519411	9.828000	-4.690000
	171.046783	1370.524196	9.820000	-4.860000
	171.147789	1370.524196	9.820000	-4.860000
	171.196792	1370.505061	9.830000	-5.060000
	171.346801	1370.494297	9.824000	-4.990000
	171.446806	1370.451248	9.842000	-5.260000
	171.546812	1370.439289	9.870000	-5.000000
	171.646818	1370.441681	9.882000	-4.880000
	171.746823	1370.463210	9.870000	-4.720000
	171.848829	1370.490719	9.856000	-4.670000
	171.946835	1370.500288	9.816000	-4.820000
	172.046841	1370.514640	9.826000	-4.780000
	172.150846	1370.495506	9.836000	-5.060000
	172.246852	1370.495506	9.836000	-5.060000
	172.346858	1370.479959	9.844000	-5.030000
	172.446864	1371.418167	9.764000	2.870000
	172.547869	1371.338002	9.692000	-5.570000
	172.646875	1371.284159	9.692000	-5.350000
	172.746881	1371.226730	9.700000	-5.380000
	172.846887	1371.195621	9.710000	-5.160000
	172.946892	1371.178870	9.682000	-5.040000
	173.046898	1371.163315	9.690000	-5.030000
	173.148904	1371.164512	9.686000	-4.890000
	173.246909	1371.164512	9.686000	-4.890000
	173.346915	1371.156136	9.678000	-4.970000
	173.446921	1371.162119	9.666000	-4.850000
	173.546926	1371.141779	9.654000	-5.070000
	173.646932	1371.131010	9.618000	-4.990000
	173.746938	1371.105885	9.634000	-5.110000
	173.846944	1371.089135	9.620000	-5.040000
	173.946949	1371.062814	9.618000	-5.120000
	174.046955	1371.037690	9.658000	-5.110000
	174.147961	1371.037690	9.658000	-5.110000
	174.246966	1371.006586	9.662000	-5.160000
	174.346972	1370.975482	9.684000	-5.160000
	174.446978	1370.959930	9.676000	-5.030000
	174.546984	1370.950359	9.706000	-4.980000
	174.646989	1370.970699	9.700000	-4.730000
	174.746995	1370.983860	9.700000	-4.790000
	174.847001	1371.018560	9.692000	-4.610000
	174.947007	1371.035312	9.662000	-4.760000
	175.054013	1371.040098	9.666000	-4.860000
	175.147018	1371.023348	9.640000	-5.040000
	175.247024	1371.023348	9.640000	-5.040000
	175.347029	1371.004206	9.634000	-5.060000
	175.447035	1370.974299	9.660000	-5.150000
	175.597044	1370.945588	9.670000	-5.140000
	175.697050	1370.938410	9.664000	-4.960000
	175.797055	1370.943195	9.692000	-4.860000
	175.897061	1370.962339	9.710000	-4.740000
	175.997066	1370.981482	9.684000	-4.740000
	176.097072	1371.011396	9.664000	-4.650000
	176.197078	1371.032934	9.656000	-4.720000
	176.297084	1371.044899	9.636000	-4.800000
	176.397089	1371.044899	9.636000	-4.800000
	176.497095	1371.040113	9.636000	-4.940000
	176.597101	1371.032934	9.640000	-4.960000
	176.697107	1371.010204	9.644000	-5.090000
	176.797112	1370.994651	9.674000	-5.030000
	176.897118	1370.981491	9.698000	-5.010000
	176.997124	1370.974313	9.700000	-4.960000
	177.097129	1370.991063	9.698000	-4.760000
	177.197135	1371.034142	9.664000	-4.540000
	177.297141	1371.038927	9.658000	-4.860000
	177.398147	1371.044910	9.640000	-4.850000
	177.497152	1371.044910	9.640000	-4.850000
	177.599158	1371.026964	9.636000	-5.050000
	177.697164	1371.001841	9.666000	-5.110000
	177.796169	1370.976718	9.684000	-5.110000
	177.896175	1370.967147	9.684000	-4.980000
	177.996181	1370.977915	9.680000	-4.810000
	178.096187	1370.995863	9.664000	-4.750000
	178.196192	1371.009024	9.660000	-4.790000
	178.299198	1371.023382	9.650000	-4.780000
	178.396204	1371.015007	9.622000	-4.970000
	178.496210	1371.015007	9.622000	-4.970000
	178.596215	1370.987491	9.650000	-5.130000
	178.696221	1370.959977	9.686000	-5.130000
	178.796227	1370.967155	9.696000	-4.840000
	178.896233	1370.989889	9.688000	-4.710000
	178.996238	1371.013819	9.666000	-4.700000
	179.096244	1371.038947	9.648000	-4.690000
	179.196249	1371.029375	9.662000	-4.980000
	179.298255	1371.015019	9.636000	-5.020000
	179.396261	1371.015019	9.636000	-5.020000
	179.496267	1370.979130	9.666000	-5.200000
	179.596272	1370.961185	9.676000	-5.050000
	179.696278	1370.962381	9.672000	-4.890000
	179.796284	1370.975542	9.694000	-4.790000
	179.896290	1371.012636	9.688000	-4.590000
	179.996295	1371.025798	9.648000	-4.790000
	180.096301	1371.022208	9.652000	-4.930000
	180.196307	1371.004263	9.628000	-5.050000
	180.304313	1370.976748	9.652000	-5.130000
	180.396318	1370.963588	9.688000	-5.010000
	180.496324	1370.963588	9.688000	-5.010000
	180.596330	1370.973159	9.706000	-4.820000
	180.696335	1370.997089	9.700000	-4.700000
	180.796341	1371.009054	9.656000	-4.800000
	180.896347	1371.005465	9.642000	-4.930000
	180.996353	1370.974361	9.642000	-5.160000
	181.096358	1370.948043	9.658000	-5.120000
	181.197364	1370.921725	9.684000	-5.120000
	181.296370	1370.916939	9.700000	-4.940000
	181.397376	1370.927707	9.702000	-4.810000
	181.496381	1370.927707	9.702000	-4.810000
	181.596387	1370.968390	9.682000	-4.560000
	181.696393	1371.000696	9.670000	-4.630000
	181.796398	1370.995911	9.656000	-4.940000
	181.896404	1370.974377	9.666000	-5.080000
	181.996410	1370.958825	9.664000	-5.030000
	182.096416	1370.936095	9.688000	-5.090000
	182.200421	1370.943273	9.684000	-4.840000
	182.296427	1370.961220	9.684000	-4.750000
	182.396432	1370.973185	9.684000	-4.800000
	182.499438	1370.973185	9.684000	-4.800000
	182.596444	1370.995918	9.666000	-4.710000
	182.696450	1370.986347	9.634000	-4.980000
	182.796455	1370.964813	9.634000	-5.080000
	182.896461	1370.945672	9.696000	-5.060000
	182.996467	1370.942083	9.698000	-4.930000
	183.100473	1370.958834	9.704000	-4.760000
	183.196478	1370.975584	9.690000	-4.760000
	183.296484	1370.992335	9.646000	-4.760000
	183.396490	1371.010282	9.656000	-4.750000
	183.496496	1371.010282	9.656000	-4.750000
	183.596501	1371.006693	9.622000	-4.930000
	183.696507	1370.976785	9.650000	-5.150000
	183.796513	1370.946878	9.678000	-5.150000
	183.896518	1370.946878	9.700000	-4.900000
	183.996524	1370.942093	9.692000	-4.940000
	184.105530	1370.966023	9.714000	-4.700000
	184.196536	1370.981577	9.658000	-4.770000
	184.296541	1370.998327	9.654000	-4.760000
	184.396547	1371.005506	9.640000	-4.840000
	184.496553	1371.005506	9.640000	-4.840000
	184.646561	1370.979187	9.630000	-5.120000
	184.746567	1370.954065	9.666000	-5.110000
	184.846573	1370.932531	9.684000	-5.080000
	184.946579	1370.924157	9.704000	-4.970000
	185.046584	1370.944497	9.694000	-4.730000
	185.146590	1370.979196	9.680000	-4.610000
	185.246596	1370.991161	9.656000	-4.800000
	185.346601	1370.998340	9.642000	-4.840000
	185.446607	1370.979198	9.640000	-5.060000
	185.546613	1370.979198	9.640000	-5.060000
	185.646618	1370.952880	9.644000	-5.120000
	185.746624	1370.927758	9.670000	-5.110000
	185.846630	1370.938525	9.718000	-4.810000
	185.946636	1370.952883	9.690000	-4.780000
	186.046641	1370.969633	9.696000	-4.760000
	186.146647	1370.976812	9.660000	-4.840000
	186.246653	1370.988776	9.652000	-4.800000
	186.346659	1370.967242	9.648000	-5.080000
	186.447664	1370.934943	9.660000	-5.170000
	186.546670	1370.934943	9.660000	-5.170000
	186.646676	1370.920588	9.678000	-5.020000
	186.746681	1370.915802	9.700000	-4.940000
	186.846687	1370.934945	9.702000	-4.740000
	186.946693	1370.955285	9.696000	-4.730000
	187.046699	1370.960071	9.664000	-4.860000
	187.147704	1370.967249	9.648000	-4.840000
	187.246710	1370.963660	9.632000	-4.930000
	187.346716	1370.956482	9.644000	-4.960000
	187.446722	1370.956482	9.644000	-4.960000
	187.546727	1370.940930	9.680000	-5.030000
	187.646733	1370.942126	9.678000	-4.890000
	187.746738	1370.957680	9.716000	-4.770000
	187.846745	1370.980413	9.706000	-4.710000
	187.948750	1370.997164	9.676000	-4.760000
	188.046756	1370.994771	9.664000	-4.920000
	188.146761	1370.973237	9.632000	-5.080000
	188.246767	1370.946919	9.668000	-5.120000
	188.348773	1370.924189	9.670000	-5.090000
	188.446779	1370.924189	9.670000	-5.090000
	188.546784	1370.921797	9.690000	-4.920000
	188.646790	1370.927779	9.684000	-4.850000
	188.746796	1370.955298	9.686000	-4.670000
	188.846802	1370.972048	9.660000	-4.760000
	188.946807	1370.975638	9.642000	-4.870000
	189.046813	1370.968459	9.622000	-4.960000
	189.146819	1370.951711	9.664000	-5.040000
	189.246824	1370.925393	9.668000	-5.120000
	189.354831	1370.921804	9.696000	-4.930000
	189.446836	1370.924196	9.704000	-4.880000
	189.546842	1370.958895	9.698000	-4.610000
	189.646847	1370.958895	9.698000	-4.610000
	189.746853	1370.974449	9.658000	-4.770000
	189.846859	1370.981628	9.644000	-4.840000
	189.946865	1370.969664	9.642000	-5.000000
	190.046870	1370.954112	9.664000	-5.030000
	190.146876	1370.952916	9.690000	-4.910000
	190.246881	1370.958898	9.700000	-4.850000
	190.346887	1370.964880	9.690000	-4.850000
	190.446893	1370.987613	9.664000	-4.710000
	190.546899	1371.009151	9.652000	-4.720000
	190.646904	1371.009151	9.652000	-4.720000
	190.746910	1371.000776	9.658000	-4.970000
	190.846916	1370.985223	9.652000	-5.030000
	190.946922	1370.966082	9.664000	-5.060000
	191.046927	1370.960100	9.690000	-4.950000
	191.146933	1370.967279	9.704000	-4.840000
	191.252939	1370.972064	9.676000	-4.860000
	191.346944	1370.994798	9.668000	-4.710000
	191.446950	1370.990012	9.640000	-4.940000
	191.546956	1370.970871	9.624000	-5.060000
	191.646962	1370.970871	9.624000	-5.060000
	191.796970	1370.930199	9.668000	-5.240000
	191.896976	1370.917039	9.688000	-5.010000
	191.996982	1370.923021	9.702000	-4.850000
	192.096987	1370.955327	9.686000	-4.630000
	192.196993	1370.980453	9.664000	-4.690000
	192.296999	1370.979257	9.652000	-4.910000
	192.397005	1370.944565	9.638000	-5.190000
	192.497010	1370.926621	9.680000	-5.050000
	192.597016	1370.914658	9.702000	-5.000000
	192.697022	1370.914658	9.702000	-5.000000
	192.797028	1370.934997	9.688000	-4.730000
	192.897033	1370.957730	9.684000	-4.710000
	192.997039	1370.969695	9.648000	-4.800000
	193.097044	1370.931415	9.646000	-5.220000
	193.197050	1370.913471	9.692000	-5.050000
	193.298056	1370.903900	9.700000	-4.980000
	193.397062	1370.931419	9.690000	-4.670000
	193.497067	1370.957742	9.672000	-4.680000
	193.598073	1370.958938	9.640000	-4.890000
	193.697079	1370.958938	9.640000	-4.890000
	193.797085	1370.948171	9.628000	-4.990000
	193.897090	1370.926638	9.656000	-5.080000
	193.997096	1370.912282	9.676000	-5.020000
	194.097102	1370.920657	9.698000	-4.830000
	194.197107	1370.927835	9.708000	-4.840000
	194.297113	1370.957748	9.696000	-4.650000
	194.397119	1370.970908	9.670000	-4.790000
	194.497125	1370.972105	9.656000	-4.890000
	194.599131	1370.960141	9.644000	-5.000000
	194.697136	1370.942197	9.644000	-5.050000
	194.797142	1370.927841	9.666000	-5.020000
	194.897148	1370.908700	9.676000	-5.060000
	194.997153	1370.906308	9.710000	-4.920000
	195.097159	1370.927844	9.702000	-4.720000
	195.197165	1370.951773	9.706000	-4.700000
	195.296170	1370.951773	9.706000	-4.700000
	195.397176	1370.978096	9.674000	-4.680000
	195.496182	1370.999633	9.664000	-4.720000
	195.596188	1371.005615	9.648000	-4.850000
	195.696193	1370.986474	9.648000	-5.060000
	195.797199	1370.956567	9.664000	-5.150000
	195.896205	1370.935033	9.686000	-5.080000
	195.996211	1370.919481	9.680000	-5.030000
	196.096216	1370.933838	9.716000	-4.780000
	196.196222	1370.962554	9.684000	-4.660000
	196.296227	1370.980501	9.668000	-4.750000
	196.396234	1370.976912	9.612000	-4.930000
	196.496239	1370.968538	9.642000	-4.970000
	196.596245	1370.937435	9.634000	-5.160000
	196.646248	1370.936238	9.724000	-4.910000
	196.796256	1370.936238	9.724000	-4.910000
	196.896262	1370.949399	9.718000	-4.790000
	196.996268	1370.970936	9.674000	-4.720000
	197.096273	1370.999652	9.652000	-4.660000
	197.196279	1371.004438	9.644000	-4.860000
	197.296285	1371.005635	9.640000	-4.890000
	197.396290	1370.981708	9.660000	-5.100000
	197.496296	1370.951801	9.680000	-5.150000
	197.596302	1370.924287	9.698000	-5.130000
	197.696308	1370.929072	9.702000	-4.860000
	197.796313	1370.945822	9.688000	-4.760000
	197.896319	1370.969752	9.678000	-4.700000
	197.997325	1370.979324	9.666000	-4.820000
	198.096331	1370.969753	9.664000	-4.980000
	198.196336	1370.943434	9.656000	-5.120000
	198.296342	1370.926686	9.686000	-5.040000
	198.396348	1370.926686	9.686000	-5.040000
	198.497354	1370.924293	9.692000	-4.920000
	198.596359	1370.943436	9.710000	-4.740000
	198.698365	1370.962580	9.678000	-4.740000
	198.796371	1370.955402	9.662000	-4.960000
	198.896376	1370.961384	9.628000	-4.850000
	198.996382	1370.929085	9.652000	-5.170000
	199.096388	1370.917122	9.686000	-5.000000
	199.196393	1370.917122	9.694000	-4.900000
	199.296399	1370.927889	9.712000	-4.810000
	199.396405	1370.947032	9.698000	-4.740000
	199.501411	1370.966176	9.666000	-4.740000
	199.596416	1370.967372	9.630000	-4.890000
	199.696422	1370.954213	9.642000	-5.010000
	199.796428	1370.954213	9.642000	-5.010000
	199.896433	1370.930287	9.670000	-5.100000
	199.996439	1370.924305	9.712000	-4.950000
	200.096445	1370.954218	9.704000	-4.650000
	200.196451	1370.982934	9.698000	-4.660000
	200.296456	1370.974559	9.640000	-4.970000
	200.396462	1370.968577	9.634000	-4.950000
	200.496468	1370.930298	9.674000	-5.220000
	200.596474	1370.918335	9.696000	-5.000000
	200.696479	1370.943460	9.712000	-4.690000
	200.796485	1370.963800	9.678000	-4.730000
	200.896491	1370.963800	9.678000	-4.730000
	201.046499	1370.962604	9.658000	-4.910000
	201.146505	1370.933893	9.672000	-5.140000
	201.246511	1370.936286	9.678000	-4.880000
	201.346517	1370.947054	9.694000	-4.810000
	201.446522	1370.951839	9.720000	-4.860000
	201.546528	1370.984146	9.680000	-4.630000
	201.646533	1370.987735	9.670000	-4.870000
	201.746539	1370.951847	9.648000	-5.200000
	201.846545	1370.920744	9.686000	-5.160000
	201.946551	1370.920744	9.686000	-5.160000
	202.046556	1370.917155	9.692000	-4.930000
	202.146562	1370.941085	9.708000	-4.700000
	202.246568	1370.969801	9.706000	-4.660000
	202.346574	1370.996124	9.678000	-4.680000
	202.446579	1371.012875	9.654000	-4.760000
	202.546585	1371.017661	9.648000	-4.860000
	202.646591	1371.021250	9.644000	-4.870000
	202.746596	1370.980577	9.656000	-5.240000
	202.851603	1370.965024	9.684000	-5.030000
	202.946608	1370.956650	9.710000	-4.970000
	203.046614	1370.972204	9.700000	-4.770000
	203.146619	1371.004511	9.674000	-4.630000
	203.246625	1371.002118	9.636000	-4.920000
	203.346631	1370.984173	9.644000	-5.050000
	203.446637	1370.969816	9.666000	-5.020000
	203.546642	1370.956657	9.676000	-5.010000
	203.646648	1370.956657	9.676000	-5.010000
	203.746654	1370.941104	9.690000	-5.030000
	203.846660	1370.950676	9.702000	-4.820000
	203.946665	1370.969819	9.696000	-4.740000
	204.046671	1370.986570	9.662000	-4.760000
	204.146677	1370.992552	9.652000	-4.850000
	204.246682	1370.991356	9.652000	-4.910000
	204.346688	1370.966233	9.652000	-5.110000
	204.446694	1370.950681	9.672000	-5.030000
	204.546700	1370.942306	9.696000	-4.970000
	204.646705	1370.944699	9.716000	-4.880000
	204.750711	1370.975809	9.682000	-4.640000
	204.846716	1370.986577	9.664000	-4.810000
	204.946723	1370.975809	9.668000	-4.990000
	205.046728	1370.975809	9.668000	-4.990000
	205.146734	1370.949491	9.680000	-5.120000
	205.246739	1370.949491	9.692000	-4.900000
	205.346745	1370.968634	9.692000	-4.740000
	205.446751	1370.984189	9.662000	-4.770000
	205.546757	1370.980599	9.654000	-4.930000
	205.649763	1370.969832	9.644000	-4.990000
	205.746768	1370.960261	9.686000	-4.980000
	205.846774	1370.957868	9.702000	-4.920000
	205.946780	1370.969833	9.686000	-4.800000
	206.046785	1370.969833	9.686000	-4.800000
	206.146791	1370.967440	9.654000	-4.920000
	206.246797	1370.963851	9.660000	-4.930000
	206.346802	1370.945906	9.680000	-5.050000
	206.446808	1370.936336	9.712000	-4.980000
	206.546814	1370.959069	9.698000	-4.710000
	206.650820	1370.974622	9.690000	-4.770000
	206.746825	1370.975819	9.634000	-4.890000
	206.846831	1370.956678	9.664000	-5.060000
	206.946837	1370.956678	9.664000	-5.060000
	207.046843	1370.941126	9.668000	-5.030000
	207.146848	1370.923181	9.710000	-5.050000
	207.296857	1370.947110	9.708000	-4.700000
	207.396863	1370.961468	9.680000	-4.780000
	207.496868	1370.945916	9.660000	-5.030000
	207.596874	1370.932756	9.644000	-5.010000
	207.696880	1370.917204	9.678000	-5.030000
	207.796885	1370.908830	9.720000	-4.970000
	207.896891	1370.929169	9.704000	-4.730000
	207.996897	1370.960278	9.672000	-4.640000
	208.096902	1370.960278	9.672000	-4.640000
	208.196908	1370.969850	9.662000	-4.820000
	208.296914	1370.953101	9.646000	-5.040000
	208.396920	1370.942334	9.680000	-4.990000
	208.496925	1370.942334	9.716000	-4.900000
	208.596931	1370.950709	9.712000	-4.830000
	208.696937	1370.957888	9.656000	-4.840000
	208.796943	1370.951906	9.634000	-4.950000
	208.896948	1370.941139	9.662000	-4.990000
	208.996954	1370.941139	9.662000	-4.990000
	209.096960	1370.930372	9.696000	-4.990000
	209.196966	1370.941140	9.710000	-4.810000
	209.296971	1370.943532	9.674000	-4.880000
	209.396977	1370.954300	9.662000	-4.810000
	209.496983	1370.931571	9.656000	-5.090000
	209.596988	1370.919608	9.684000	-5.000000
	209.696994	1370.922000	9.692000	-4.880000
	209.797000	1370.931571	9.694000	-4.820000
	209.847003	1370.950715	9.660000	-4.740000
	209.997011	1370.950715	9.660000	-4.740000
	210.097017	1370.947126	9.642000	-4.930000
	210.197023	1370.927985	9.664000	-5.060000
	210.297029	1370.914825	9.696000	-5.010000
	210.397034	1370.927986	9.706000	-4.790000
	210.497040	1370.948326	9.712000	-4.730000
	210.597045	1370.969862	9.662000	-4.720000
	210.697052	1370.966273	9.670000	-4.930000
	210.797057	1370.949525	9.686000	-5.040000
	210.899063	1370.938758	9.702000	-4.990000
	210.997068	1370.938758	9.702000	-4.990000
	211.097074	1370.950722	9.714000	-4.800000
	211.197080	1370.963883	9.652000	-4.790000
	211.297086	1370.967472	9.644000	-4.870000
	211.397091	1370.955508	9.670000	-5.000000
	211.497097	1370.950723	9.710000	-4.940000
	211.597103	1370.955509	9.696000	-4.860000
	211.697109	1370.967473	9.674000	-4.800000
	211.797114	1370.950724	9.656000	-5.040000
	211.901120	1370.936369	9.658000	-5.020000
	211.997126	1370.936369	9.658000	-5.020000
	212.097131	1370.933976	9.682000	-4.920000
	212.197137	1370.939958	9.712000	-4.850000
	212.300143	1370.960298	9.692000	-4.730000
	212.397149	1370.963887	9.666000	-4.870000
	212.498154	1370.926803	9.648000	-5.210000
	212.597160	1370.908859	9.710000	-5.050000
	212.697166	1370.913645	9.704000	-4.860000
	212.796171	1370.928002	9.698000	-4.780000
	212.896177	1370.928002	9.698000	-4.780000
	212.996183	1370.931591	9.642000	-4.870000
	213.096189	1370.924413	9.652000	-4.960000
	213.196194	1370.916038	9.690000	-4.970000
	213.296200	1370.907664	9.702000	-4.970000
	213.396205	1370.939970	9.680000	-4.630000
	213.496212	1370.942362	9.658000	-4.880000
	213.596217	1370.938773	9.652000	-4.930000
	213.696223	1370.926810	9.694000	-5.000000
	213.800229	1370.932792	9.712000	-4.850000
	213.896234	1370.951935	9.686000	-4.740000
	213.996240	1370.951935	9.686000	-4.740000
	214.096246	1370.948346	9.648000	-4.930000
	214.196251	1370.932794	9.682000	-5.030000
	214.296257	1370.916046	9.696000	-5.040000
	214.396263	1370.944761	9.686000	-4.660000
	214.496269	1370.957922	9.674000	-4.790000
	214.596274	1370.942370	9.642000	-5.030000
	214.700280	1370.918445	9.680000	-5.100000
	214.796286	1370.926819	9.702000	-4.830000
	214.896291	1370.951945	9.706000	-4.690000
	214.996297	1370.951945	9.706000	-4.690000
	215.096303	1370.968696	9.660000	-4.760000
	215.196309	1370.943574	9.682000	-5.110000
	215.296314	1370.948359	9.700000	-4.860000
	215.396320	1370.949556	9.708000	-4.890000
	215.496326	1370.969896	9.686000	-4.730000
	215.596332	1370.973485	9.648000	-4.870000
	215.698338	1370.954344	9.660000	-5.060000
	215.796343	1370.947166	9.698000	-4.960000
	215.896348	1370.948362	9.712000	-4.890000
	215.996355	1370.948362	9.712000	-4.890000
	216.096360	1370.967505	9.664000	-4.740000
	216.196366	1370.962720	9.650000	-4.940000
	216.296371	1370.959131	9.660000	-4.930000
	216.396377	1370.954345	9.718000	-4.940000
	216.496383	1370.968703	9.692000	-4.780000
	216.596389	1370.986650	9.660000	-4.750000
	216.696394	1370.963920	9.660000	-5.090000
	216.796400	1370.936405	9.666000	-5.130000
	216.896406	1370.938798	9.700000	-4.880000
	216.996412	1370.938798	9.700000	-4.880000
	217.096417	1370.972301	9.714000	-4.620000
	217.196423	1370.990248	9.672000	-4.750000
	217.296429	1370.981873	9.654000	-4.970000
	217.396434	1370.960340	9.714000	-5.080000
	217.496440	1370.978287	9.686000	-4.750000
	217.602446	1370.985465	9.684000	-4.840000
	217.696452	1370.999823	9.666000	-4.780000
	217.796457	1370.968719	9.658000	-5.160000
	217.896463	1370.951971	9.708000	-5.040000
	217.996469	1370.951971	9.708000	-5.040000
	218.096475	1370.957953	9.706000	-4.850000
	218.196480	1370.968721	9.688000	-4.810000
	218.296486	1370.981882	9.670000	-4.790000
	218.396492	1370.957956	9.660000	-5.100000
	218.497498	1370.949581	9.722000	-4.970000
	218.596503	1370.967528	9.696000	-4.750000
	218.696509	1370.989065	9.670000	-4.720000
	218.796515	1370.985476	9.642000	-4.930000
	218.896520	1370.950784	9.666000	-5.190000
	218.996526	1370.950784	9.666000	-5.190000
	219.096532	1370.934036	9.676000	-5.040000
	219.246541	1370.931643	9.698000	-4.920000
	219.346546	1370.944804	9.724000	-4.790000
	219.446552	1370.965143	9.676000	-4.730000
	219.546557	1370.960358	9.656000	-4.940000
	219.646563	1370.935236	9.670000	-5.110000
	219.746569	1370.913703	9.706000	-5.080000
	219.846575	1370.914899	9.716000	-4.890000
	219.946580	1370.930453	9.712000	-4.770000
	220.046586	1370.941221	9.668000	-4.810000
	220.146592	1370.929257	9.640000	-5.000000
	220.246598	1370.912509	9.672000	-5.040000
	220.346603	1370.902939	9.712000	-4.980000
	220.446609	1370.898154	9.730000	-4.940000
	220.546615	1370.898154	9.730000	-4.940000
	220.646620	1370.904135	9.706000	-4.850000
	220.746626	1370.929261	9.710000	-4.690000
	220.846632	1370.957977	9.656000	-4.660000
	220.896635	1370.959173	9.670000	-4.890000
	221.046643	1370.944817	9.648000	-5.020000
	221.146649	1370.914911	9.680000	-5.150000
	221.246655	1370.899359	9.708000	-5.030000
	221.346661	1370.896967	9.710000	-4.920000
	221.446666	1370.925682	9.680000	-4.660000
	221.546672	1370.953201	9.662000	-4.670000
	221.647677	1370.952005	9.674000	-4.910000
	221.746683	1370.934060	9.700000	-5.050000
	221.847689	1370.929275	9.710000	-4.940000
	221.947695	1370.929275	9.710000	-4.940000
	222.046700	1370.940042	9.706000	-4.810000
	222.146706	1370.944828	9.680000	-4.860000
	222.246712	1370.941239	9.654000	-4.930000
	222.346718	1370.919706	9.696000	-5.080000
	222.446723	1370.922098	9.716000	-4.880000
	222.546729	1370.953207	9.706000	-4.640000
	222.646735	1370.956797	9.656000	-4.870000
	222.746740	1370.952011	9.652000	-4.940000
	222.849746	1370.936459	9.670000	-5.030000
	222.946752	1370.936459	9.670000	-5.030000
	223.046758	1370.928085	9.714000	-4.970000
	223.146763	1370.944835	9.718000	-4.760000
	223.246769	1370.962782	9.662000	-4.750000
	223.346775	1370.957996	9.662000	-4.940000
	223.446781	1370.929286	9.678000	-5.140000
	223.546786	1370.928089	9.726000	-4.910000
	223.646792	1370.944839	9.714000	-4.760000
	223.746798	1370.959197	9.678000	-4.780000
	223.846804	1370.965179	9.682000	-4.850000
	223.946809	1370.965179	9.682000	-4.850000
	224.046815	1370.956804	9.652000	-4.970000
	224.146821	1370.947234	9.696000	-4.980000
	224.246826	1370.937663	9.722000	-4.980000
	224.346832	1370.962789	9.702000	-4.690000
	224.446838	1370.978343	9.666000	-4.770000
	224.546844	1370.963987	9.656000	-5.020000
	224.646849	1370.941257	9.706000	-5.090000
	224.748855	1370.928098	9.724000	-5.010000
	224.846860	1370.943651	9.702000	-4.770000
	224.946867	1370.956812	9.676000	-4.790000
	225.046872	1370.956812	9.676000	-4.790000
	225.146878	1370.937671	9.662000	-5.060000
	225.246883	1370.926904	9.662000	-4.990000
	225.346889	1370.913745	9.704000	-5.010000
	225.446895	1370.916138	9.724000	-4.880000
	225.596903	1370.931691	9.712000	-4.770000
	225.696909	1370.947245	9.674000	-4.770000
	225.796915	1370.947245	9.642000	-4.900000
	225.896921	1370.918535	9.676000	-5.140000
	225.996926	1370.911357	9.704000	-4.960000
	226.096932	1370.914946	9.728000	-4.870000
	226.146935	1370.914946	9.728000	-4.870000
	226.296944	1370.940071	9.698000	-4.690000
	226.396949	1370.965198	9.684000	-4.690000
	226.496955	1370.955627	9.678000	-4.980000
	226.596961	1370.937682	9.670000	-5.050000
	226.696967	1370.911365	9.696000	-5.120000
	226.796972	1370.907776	9.722000	-4.930000
	226.896978	1370.926918	9.702000	-4.740000
	226.996984	1370.931704	9.664000	-4.860000
	227.096989	1370.931704	9.664000	-4.860000
	227.196995	1370.918545	9.672000	-5.010000
	227.297001	1370.897012	9.676000	-5.080000
	227.397007	1370.886245	9.706000	-4.990000
	227.497012	1370.916157	9.744000	-4.650000
	227.597018	1370.929317	9.680000	-4.790000
	227.697024	1370.918550	9.656000	-4.990000
	227.797029	1370.899410	9.686000	-5.060000
	227.897035	1370.881466	9.708000	-5.050000
	227.997041	1370.892234	9.724000	-4.810000
	228.100047	1370.922145	9.702000	-4.650000
	228.197052	1370.922145	9.702000	-4.650000
	228.297058	1370.932913	9.668000	-4.810000
	228.397064	1370.906595	9.656000	-5.120000
	228.497069	1370.888651	9.678000	-5.050000
	228.597075	1370.877885	9.706000	-4.990000
	228.697081	1370.887456	9.708000	-4.820000
	228.797087	1370.906598	9.680000	-4.740000
	228.897092	1370.903009	9.672000	-4.930000
	228.997098	1370.875496	9.678000	-5.130000
	229.097104	1370.883870	9.682000	-4.830000
	229.197109	1370.883870	9.682000	-4.830000
	229.297115	1370.891049	9.708000	-4.840000
	229.397121	1370.913781	9.694000	-4.710000
	229.497127	1370.910192	9.666000	-4.930000
	229.597132	1370.888659	9.670000	-5.080000
	229.697138	1370.888659	9.696000	-4.900000
	229.797144	1370.912588	9.730000	-4.700000
	229.897150	1370.922159	9.704000	-4.820000
	229.999156	1370.937713	9.670000	-4.770000
	230.097161	1370.937713	9.670000	-4.770000
	230.197166	1370.919768	9.676000	-5.050000
	230.296172	1370.907805	9.696000	-5.000000
	230.396178	1370.922162	9.702000	-4.780000
	230.496184	1370.940109	9.702000	-4.750000
	230.596189	1370.936519	9.668000	-4.930000
	230.696195	1370.916183	9.678000	-5.070000
	230.796201	1370.894650	9.692000	-5.080000
	230.896207	1370.901828	9.720000	-4.840000
	230.996212	1370.901828	9.720000	-4.840000
	231.096218	1370.918578	9.676000	-4.760000
	231.196224	1370.929346	9.674000	-4.810000
	231.296229	1370.912597	9.686000	-5.040000
	231.396235	1370.897046	9.682000	-5.030000
	231.496241	1370.903028	9.736000	-4.850000
	231.596247	1370.930546	9.704000	-4.670000
	231.696252	1370.934135	9.674000	-4.870000
	231.796258	1370.917387	9.670000	-5.040000
	231.899264	1370.895855	9.692000	-5.080000
	231.996270	1370.886284	9.728000	-4.980000
	232.096275	1370.886284	9.728000	-4.980000
	232.196281	1370.911410	9.710000	-4.690000
	232.296287	1370.935339	9.670000	-4.700000
	232.396292	1370.938928	9.662000	-4.870000
	232.496298	1370.910218	9.684000	-5.140000
	232.596304	1370.915003	9.730000	-4.860000
	232.696310	1370.941326	9.716000	-4.680000
	232.797315	1370.955683	9.664000	-4.780000
	232.896321	1370.952094	9.654000	-4.930000
	232.996327	1370.952094	9.654000	-4.930000
	233.096333	1370.925776	9.676000	-5.120000
	233.196338	1370.911420	9.692000	-5.020000
	233.296344	1370.935349	9.732000	-4.700000
	233.396349	1370.960475	9.708000	-4.690000
	233.496356	1370.967654	9.664000	-4.840000
	233.596361	1370.942532	9.690000	-5.110000
	233.696367	1370.919802	9.690000	-5.090000
	233.800373	1370.913821	9.724000	-4.950000
	233.896378	1370.919803	9.722000	-4.850000
	233.996384	1370.919803	9.722000	-4.850000
	234.096390	1370.947322	9.688000	-4.670000
	234.198396	1370.948518	9.652000	-4.890000
	234.296401	1370.937751	9.648000	-4.990000
	234.396407	1370.909041	9.690000	-5.140000
	234.496413	1370.895882	9.722000	-5.010000
	234.596418	1370.922204	9.722000	-4.680000
	234.696424	1370.953313	9.692000	-4.640000
	234.808430	1370.941350	9.660000	-5.000000
	234.896435	1370.916228	9.680000	-5.110000
	234.997441	1370.894695	9.712000	-5.080000
	235.096447	1370.894695	9.712000	-5.080000
	235.196453	1370.899481	9.726000	-4.860000
	235.296458	1370.919820	9.688000	-4.730000
	235.396464	1370.956912	9.650000	-4.590000
	235.496469	1370.949734	9.656000	-4.960000
	235.596476	1370.925809	9.694000	-5.100000
	235.697481	1370.903080	9.724000	-5.090000
	235.796487	1370.916240	9.706000	-4.790000
	235.896492	1370.938973	9.700000	-4.710000
	235.996498	1370.954526	9.650000	-4.770000
	236.096504	1370.954526	9.650000	-4.770000
	236.196510	1370.932993	9.660000	-5.080000
	236.296515	1370.925815	9.698000	-4.960000
	236.400521	1370.930600	9.714000	-4.860000
	236.496527	1370.934190	9.722000	-4.870000
	236.596533	1370.948547	9.700000	-4.780000
	236.696538	1370.940172	9.644000	-4.970000
	236.796544	1370.931798	9.658000	-4.970000
	236.896550	1370.915050	9.714000	-5.040000
	236.996555	1370.919835	9.732000	-4.860000
	237.096561	1370.919835	9.732000	-4.860000
	237.196567	1370.934192	9.724000	-4.780000
	237.296573	1370.952139	9.664000	-4.750000
	237.396578	1370.955728	9.644000	-4.870000
	237.496584	1370.942569	9.680000	-5.010000
	237.596590	1370.909074	9.694000	-5.180000
	237.696596	1370.900700	9.694000	-4.970000
	237.796601	1370.928219	9.702000	-4.670000
	237.946610	1370.946165	9.670000	-4.750000
	238.047616	1370.941380	9.646000	-4.940000
	238.146621	1370.941380	9.646000	-4.940000
	238.246627	1370.922239	9.690000	-5.060000
	238.346633	1370.913865	9.698000	-4.970000
	238.446639	1370.910276	9.718000	-4.930000
	238.546644	1370.941385	9.710000	-4.640000
	238.648650	1370.955742	9.676000	-4.780000
	238.746655	1370.955742	9.664000	-4.900000
	238.846662	1370.944975	9.658000	-4.990000
	238.946667	1370.928227	9.712000	-5.040000
	239.046673	1370.934208	9.712000	-4.850000
	239.146678	1370.934208	9.712000	-4.850000
	239.246684	1370.953352	9.714000	-4.740000
	239.346690	1370.966513	9.678000	-4.790000
	239.446696	1370.970102	9.664000	-4.870000
	239.546701	1370.942587	9.664000	-5.130000
	239.646707	1370.918662	9.680000	-5.100000
	239.746713	1370.903110	9.698000	-5.030000
	239.846718	1370.916270	9.734000	-4.790000
	239.946724	1370.944986	9.694000	-4.660000
	240.046730	1370.944986	9.694000	-4.660000
	240.146736	1370.950968	9.672000	-4.850000
	240.246741	1370.952164	9.666000	-4.890000
	240.346747	1370.928239	9.676000	-5.100000
	240.446753	1370.915079	9.698000	-5.010000
	240.546759	1370.910294	9.734000	-4.940000
	240.646764	1370.923455	9.708000	-4.790000
	240.746770	1370.944991	9.706000	-4.720000
	240.846776	1370.947383	9.662000	-4.880000
	240.948781	1370.942598	9.646000	-4.940000
	241.046787	1370.942598	9.646000	-4.940000
	241.146793	1370.915084	9.664000	-5.130000
	241.246799	1370.897140	9.692000	-5.050000
	241.346804	1370.895944	9.742000	-4.910000
	241.446810	1370.904318	9.744000	-4.830000
	241.546816	1370.929444	9.706000	-4.690000
	241.646821	1370.953373	9.698000	-4.700000
	241.746827	1370.931840	9.658000	-5.080000
	241.846833	1370.912699	9.672000	-5.060000
	241.954839	1370.893559	9.714000	-5.060000
	242.046844	1370.889970	9.714000	-4.930000
	242.146850	1370.889970	9.714000	-4.930000
	242.246856	1370.875615	9.730000	-5.020000
	242.346861	1370.910313	9.720000	-4.610000
	242.446867	1370.925866	9.676000	-4.770000
	242.546873	1370.919885	9.670000	-4.950000
	242.646879	1370.900744	9.672000	-5.060000
	242.746884	1370.873231	9.696000	-5.130000
	242.849890	1370.869642	9.722000	-4.930000
	242.946896	1370.869642	9.722000	-4.930000
	243.046902	1370.883999	9.730000	-4.780000
	243.146907	1370.901945	9.698000	-4.750000
	243.246913	1370.928267	9.678000	-4.680000
	243.346919	1370.934249	9.668000	-4.850000
	243.446924	1370.907931	9.658000	-5.120000
	243.546930	1370.884006	9.686000	-5.100000
	243.646936	1370.873240	9.712000	-4.990000
	243.746942	1370.888793	9.722000	-4.770000
	243.855948	1370.909132	9.728000	-4.730000
	243.946953	1370.924685	9.698000	-4.770000
	244.046959	1370.924685	9.698000	-4.770000
	244.146965	1370.928274	9.684000	-4.870000
	244.248971	1370.916311	9.652000	-5.000000
	244.346976	1370.903152	9.666000	-5.010000
	244.446981	1370.880423	9.700000	-5.090000
	244.546988	1370.814640	9.878000	-5.450000
	244.646993	1370.781148	9.878000	-5.180000
	244.749999	1370.764402	9.874000	-5.040000
	244.847004	1370.748852	9.856000	-5.030000
	244.947010	1370.748852	9.856000	-5.030000
	245.047016	1370.721342	9.816000	-5.130000
	245.149022	1370.678285	9.836000	-5.260000
	245.247027	1370.642406	9.846000	-5.200000
	245.347033	1370.612506	9.872000	-5.150000
	245.447039	1370.607722	9.882000	-4.940000
	245.547045	1370.622075	9.880000	-4.780000
	245.647050	1370.634037	9.836000	-4.800000
	245.757057	1370.631645	9.826000	-4.920000
	245.847062	1370.619684	9.820000	-5.000000
	245.947067	1370.588589	9.848000	-5.160000
	246.047073	1370.588589	9.848000	-5.160000
	246.147079	1370.595766	9.880000	-4.840000
	246.297088	1370.612512	9.862000	-4.760000
	246.398093	1370.629258	9.842000	-4.760000
	246.497099	1370.642416	9.830000	-4.790000
	246.597105	1370.622083	9.820000	-5.070000
	246.647108	1370.601751	9.838000	-5.070000
	246.797116	1370.602947	9.868000	-4.890000
	246.897122	1370.604143	9.886000	-4.890000
	246.997128	1370.628067	9.854000	-4.700000
	247.097133	1370.628067	9.854000	-4.700000
	247.197139	1370.632851	9.834000	-4.860000
	247.297145	1370.619695	9.816000	-5.010000
	247.397151	1370.599363	9.820000	-5.070000
	247.497156	1370.571856	9.842000	-5.130000
	247.597162	1370.579032	9.864000	-4.840000
	247.697167	1370.595778	9.860000	-4.760000
	247.796173	1370.620898	9.816000	-4.690000
	247.896179	1370.617310	9.822000	-4.930000
	247.996185	1370.596978	9.830000	-5.070000
	248.046187	1370.596978	9.830000	-5.070000
	248.197196	1370.576646	9.870000	-5.070000
	248.296202	1370.586215	9.862000	-4.820000
	248.399208	1370.614923	9.856000	-4.660000
	248.496213	1370.606551	9.816000	-4.970000
	248.598219	1370.593395	9.824000	-5.010000
	248.697225	1370.581435	9.808000	-5.000000
	248.797231	1370.593396	9.876000	-4.800000
	248.896236	1370.607749	9.870000	-4.780000
	248.997242	1370.607749	9.870000	-4.780000
	249.096248	1370.629280	9.838000	-4.720000
	249.196253	1370.650812	9.834000	-4.720000
	249.296259	1370.641243	9.804000	-4.980000
	249.396265	1370.624499	9.822000	-5.040000
	249.496271	1370.610146	9.838000	-5.020000
	249.610277	1370.600578	9.858000	-4.980000
	249.696282	1370.616128	9.864000	-4.770000
	249.796288	1370.642445	9.856000	-4.680000
	249.896293	1370.652014	9.832000	-4.820000
	250.006299	1370.637661	9.828000	-5.020000
	250.096305	1370.617329	9.834000	-5.070000
	250.196311	1370.617329	9.834000	-5.070000
	250.296316	1370.595801	9.860000	-5.080000
	250.396322	1370.602977	9.852000	-4.840000
	250.496327	1370.630490	9.850000	-4.670000
	250.596334	1370.630490	9.816000	-4.900000
	250.696339	1370.612550	9.814000	-5.050000
	250.796345	1370.598197	9.816000	-5.020000
	250.899351	1370.580257	9.850000	-5.050000
	250.996356	1370.573081	9.854000	-4.960000
	251.096362	1370.586238	9.858000	-4.790000
	251.196368	1370.586238	9.858000	-4.790000
	251.296373	1370.610162	9.830000	-4.700000
	251.396379	1370.630497	9.820000	-4.730000
	251.496385	1370.629301	9.802000	-4.910000
	251.596391	1370.601793	9.824000	-5.130000
	251.696396	1370.611362	9.856000	-4.820000
	251.797402	1370.618539	9.882000	-4.840000
	251.896408	1370.634089	9.848000	-4.770000
	251.996413	1370.635285	9.830000	-4.890000
	252.096419	1370.629305	9.808000	-4.950000
	252.196425	1370.619736	9.808000	-4.980000
	252.301431	1370.619736	9.808000	-4.980000
	252.396436	1370.600600	9.836000	-5.060000
	252.496442	1370.598208	9.864000	-4.920000
	252.646451	1370.622131	9.860000	-4.700000
	252.749456	1370.640074	9.848000	-4.750000
	252.847462	1370.636486	9.810000	-4.930000
	252.948468	1370.622133	9.816000	-5.020000
	253.046474	1370.600605	9.830000	-5.080000
	253.148479	1370.594625	9.860000	-4.950000
	253.247485	1370.614960	9.874000	-4.730000
	253.348491	1370.614960	9.874000	-4.730000
	253.446496	1370.640080	9.840000	-4.690000
	253.549502	1370.648453	9.826000	-4.830000
	253.646508	1370.628120	9.806000	-5.070000
	253.746513	1370.613768	9.832000	-5.020000
	253.846519	1370.614964	9.872000	-4.890000
	253.947525	1370.626925	9.880000	-4.800000
	254.046531	1370.640083	9.832000	-4.790000
	254.146536	1370.646064	9.824000	-4.850000
	254.146536	1370.646064	9.824000	-4.850000
	254.346548	1370.625731	9.846000	-5.070000
	254.446554	1370.622143	9.862000	-4.930000
	254.547559	1370.623339	9.878000	-4.890000
	254.646565	1370.647263	9.858000	-4.700000
	254.747571	1370.656833	9.808000	-4.820000
	254.857577	1370.644872	9.864000	-5.000000
	254.948582	1370.640087	9.832000	-4.940000
	255.046588	1370.650853	9.858000	-4.810000
	255.148594	1370.661618	9.822000	-4.810000
	255.250600	1370.661618	9.822000	-4.810000
	255.346605	1370.649658	9.820000	-5.000000
	255.446611	1370.628129	9.814000	-5.080000
	255.548616	1370.612581	9.842000	-5.030000
	255.646622	1370.599424	9.870000	-5.010000
	255.748628	1370.607797	9.872000	-4.830000
	255.846634	1370.628132	9.846000	-4.730000
	255.946640	1370.634113	9.848000	-4.850000
	256.046645	1370.632917	9.818000	-4.910000
	256.146651	1370.618564	9.814000	-5.020000
	256.276659	1370.608996	9.862000	-4.980000
	256.346663	1370.597035	9.874000	-5.000000
	256.447668	1370.597035	9.874000	-5.000000
	256.547674	1370.613781	9.872000	-4.760000
	256.646679	1370.636509	9.808000	-4.710000
	256.746685	1370.620961	9.820000	-5.030000
	256.846691	1370.586278	9.840000	-5.190000
	256.948697	1370.592258	9.852000	-4.850000
	257.046702	1370.603023	9.858000	-4.810000
	257.147708	1370.623358	9.846000	-4.730000
	257.246714	1370.628143	9.800000	-4.860000
	257.346720	1370.628143	9.800000	-4.860000
	257.446725	1370.614986	9.824000	-5.010000
	257.546731	1370.591067	9.830000	-5.100000
	257.646737	1370.587478	9.842000	-4.930000
	257.746742	1370.587478	9.872000	-4.900000
	257.846748	1370.605421	9.860000	-4.750000
	257.946754	1370.618578	9.838000	-4.790000
	258.046760	1370.620970	9.808000	-4.880000
	258.167767	1370.598246	9.846000	-5.090000
	258.296774	1370.611404	9.872000	-4.790000
	258.398779	1370.610208	9.882000	-4.910000
	258.496785	1370.642506	9.824000	-4.630000
	258.598791	1370.642506	9.824000	-4.630000
	258.696797	1370.632937	9.806000	-4.980000
	258.796803	1370.616193	9.820000	-5.040000
	258.896808	1370.591077	9.850000	-5.110000
	258.996814	1370.589881	9.862000	-4.910000
	259.096819	1370.611412	9.864000	-4.720000
	259.196826	1370.622177	9.820000	-4.810000
	259.296831	1370.610217	9.808000	-5.000000
	259.396837	1370.603041	9.832000	-4.960000
	259.496842	1370.589884	9.858000	-5.010000
	259.596848	1370.599453	9.878000	-4.820000
	259.696854	1370.599453	9.878000	-4.820000
	259.796860	1370.620984	9.822000	-4.720000
	259.896865	1370.615004	9.800000	-4.950000
	259.996871	1370.595868	9.822000	-5.060000
	260.096877	1370.597064	9.870000	-4.890000
	260.196883	1370.604241	9.874000	-4.840000
	260.296888	1370.634146	9.850000	-4.650000
	260.397894	1370.624577	9.822000	-4.980000
	260.496900	1370.616205	9.832000	-4.970000
	260.596905	1370.616205	9.832000	-4.970000
	260.696911	1370.599461	9.846000	-5.040000
	260.796917	1370.623384	9.850000	-4.700000
	260.896923	1370.643720	9.846000	-4.730000
	260.996928	1370.634151	9.812000	-4.980000
	261.096934	1370.600664	9.818000	-5.180000
	261.196940	1370.587508	9.854000	-5.010000
	261.296946	1370.600665	9.866000	-4.790000
	261.396951	1370.615019	9.864000	-4.780000
	261.496957	1370.620999	9.802000	-4.850000
	261.596962	1370.620999	9.802000	-4.850000
	261.696969	1370.617411	9.802000	-4.930000
	261.796974	1370.594687	9.826000	-5.090000
	261.896980	1370.598275	9.876000	-4.870000
	261.996985	1370.609041	9.866000	-4.810000
	262.096991	1370.624591	9.824000	-4.770000
	262.196997	1370.606650	9.798000	-5.050000
	262.297003	1370.592298	9.842000	-5.020000
	262.404009	1370.595886	9.874000	-4.870000
	262.497014	1370.619810	9.846000	-4.700000
	262.597020	1370.631771	9.816000	-4.800000
	262.697025	1370.631771	9.816000	-4.800000
	262.797031	1370.623399	9.804000	-4.970000
	262.897037	1370.593500	9.836000	-5.150000
	262.997043	1370.600676	9.864000	-4.840000
	263.097048	1370.604264	9.870000	-4.870000
	263.197054	1370.622207	9.846000	-4.750000
	263.297060	1370.613834	9.802000	-4.970000
	263.404066	1370.586327	9.820000	-5.130000
	263.497071	1370.568387	9.862000	-5.050000
	263.597077	1370.583937	9.868000	-4.770000
	263.697083	1370.583937	9.868000	-4.770000
	263.797089	1370.612645	9.850000	-4.660000
	263.897094	1370.617430	9.834000	-4.860000
	263.997100	1370.595902	9.824000	-5.080000
	264.097106	1370.600686	9.870000	-4.860000
	264.197111	1370.631788	9.848000	-4.640000
	264.304117	1370.644946	9.814000	-4.790000
	264.397123	1370.649730	9.808000	-4.860000
	264.497128	1370.621026	9.852000	-5.140000
	264.597134	1370.621026	9.852000	-5.140000
	264.697140	1370.599498	9.866000	-5.080000
	264.797146	1370.604282	9.860000	-4.860000
	264.897151	1370.630599	9.824000	-4.680000
	264.997157	1370.624618	9.830000	-4.950000
	265.097163	1370.597111	9.818000	-5.130000
	265.196168	1370.598307	9.870000	-4.890000
	265.296174	1370.598307	9.870000	-4.900000
	265.396180	1370.625820	9.878000	-4.670000
	265.496186	1370.649744	9.850000	-4.700000
	265.596191	1370.664098	9.800000	-4.780000
	265.696197	1370.654529	9.804000	-4.980000
	265.796203	1370.633001	9.808000	-5.080000
	265.896209	1370.621040	9.866000	-5.000000
	265.996214	1370.628217	9.858000	-4.840000
	266.096220	1370.628217	9.858000	-4.840000
	266.196226	1370.633001	9.878000	-4.860000
	266.296231	1370.652140	9.828000	-4.740000
	266.396237	1370.672476	9.806000	-4.730000
	266.496243	1370.662907	9.800000	-4.980000
	266.596249	1370.640182	9.814000	-5.090000
	266.760258	1370.634202	9.848000	-4.950000
	266.855263	1370.650949	9.880000	-4.760000
	266.946269	1370.678462	9.850000	-4.670000
	267.046274	1370.686835	9.822000	-4.830000
	267.153280	1370.661719	9.816000	-5.110000
	267.246286	1370.641386	9.846000	-5.070000
	267.346292	1370.628229	9.876000	-5.010000
	267.446297	1370.654546	9.858000	-4.680000
	267.596306	1370.673685	9.826000	-4.740000
	267.646308	1370.661724	9.802000	-5.000000
	267.746315	1370.631824	9.844000	-5.150000
	267.896323	1370.611492	9.880000	-5.070000
	267.996329	1370.625846	9.866000	-4.780000
	268.096334	1370.653359	9.856000	-4.670000
	268.146337	1370.653359	9.856000	-4.670000
	268.296346	1370.650967	9.828000	-4.920000
	268.396351	1370.635418	9.810000	-5.030000
	268.496357	1370.611498	9.820000	-5.100000
	268.596363	1370.591166	9.848000	-5.070000
	268.696369	1370.610304	9.860000	-4.740000
	268.796374	1370.635425	9.844000	-4.690000
	268.896380	1370.649779	9.828000	-4.780000
	268.996386	1370.653367	9.826000	-4.870000
	269.096392	1370.640210	9.816000	-5.010000
	269.196397	1370.621074	9.834000	-5.060000
	269.296403	1370.619878	9.880000	-4.910000
	269.396409	1370.637820	9.842000	-4.750000
	269.496415	1370.654567	9.824000	-4.760000
	269.596420	1370.653371	9.814000	-4.910000
	269.697426	1370.633038	9.828000	-5.070000
	269.796432	1370.633038	9.828000	-5.070000
	269.896437	1370.616294	9.842000	-5.040000
	269.996443	1370.605529	9.868000	-4.990000
	270.096449	1370.634238	9.868000	-4.660000
	270.196455	1370.662948	9.826000	-4.660000
	270.296460	1370.660556	9.820000	-4.920000
	270.396466	1370.643811	9.802000	-5.040000
	270.496471	1370.622283	9.832000	-5.080000
	270.596478	1370.610322	9.848000	-5.000000
	270.696483	1370.630657	9.854000	-4.730000
	270.796489	1370.659367	9.862000	-4.660000
	270.896494	1370.679703	9.840000	-4.730000
	270.996500	1370.674918	9.806000	-4.940000
	271.096506	1370.674918	9.816000	-4.900000
	271.196512	1370.652193	9.826000	-5.090000
	271.296517	1370.636644	9.852000	-5.030000
	271.396523	1370.636644	9.860000	-4.900000
	271.496529	1370.636644	9.860000	-4.900000
	271.596535	1370.658176	9.866000	-4.720000
	271.696540	1370.670138	9.822000	-4.800000
	271.796546	1370.659373	9.822000	-4.990000
	271.896552	1370.628277	9.824000	-5.160000
	271.996557	1370.603161	9.834000	-5.110000
	272.096563	1370.616319	9.854000	-4.790000
	272.196569	1370.641439	9.844000	-4.690000
	272.296575	1370.679720	9.824000	-4.580000
	272.396580	1370.677328	9.800000	-4.920000
	272.496586	1370.679720	9.818000	-4.880000
	272.596592	1370.653408	9.824000	-5.120000
	272.696598	1370.633075	9.836000	-5.070000
	272.796603	1370.611547	9.862000	-5.080000
	272.898609	1370.629489	9.856000	-4.750000
	272.996614	1370.660592	9.836000	-4.640000
	273.096621	1370.660592	9.836000	-4.640000
	273.196626	1370.677338	9.808000	-4.760000
	273.296632	1370.659397	9.822000	-5.050000
	273.396637	1370.640261	9.808000	-5.060000
	273.496643	1370.619928	9.826000	-5.070000
	273.596649	1370.616340	9.844000	-4.930000
	273.696655	1370.627105	9.880000	-4.810000
	273.796660	1370.647441	9.852000	-4.730000
	273.896666	1370.661795	9.840000	-4.780000
	273.996672	1370.664187	9.810000	-4.880000
	274.096677	1370.647442	9.802000	-5.040000
	274.196683	1370.625914	9.838000	-5.080000
	274.296689	1370.618737	9.842000	-4.960000
	274.396695	1370.615149	9.850000	-4.930000
	274.496700	1370.629503	9.860000	-4.780000
	274.596706	1370.662998	9.852000	-4.620000
	274.696712	1370.662998	9.852000	-4.620000
	274.796718	1370.682137	9.830000	-4.740000
	274.896723	1370.680941	9.804000	-4.910000
	274.996729	1370.661804	9.808000	-5.060000
	275.096735	1370.643864	9.834000	-5.050000
	275.196741	1370.621139	9.846000	-5.090000
	275.296746	1370.625924	9.870000	-4.860000
	275.396752	1370.627120	9.874000	-4.890000
	275.496758	1370.658222	9.846000	-4.640000
	275.596763	1370.668988	9.836000	-4.810000
	275.696769	1370.651047	9.826000	-5.050000
	275.796775	1370.623539	9.802000	-5.130000
	275.896780	1370.602010	9.830000	-5.080000
	275.996786	1370.596030	9.842000	-4.950000
	276.096792	1370.596030	9.842000	-4.950000
	276.197798	1370.611580	9.880000	-4.770000
	276.296803	1370.642682	9.848000	-4.640000
	276.396809	1370.664214	9.836000	-4.720000
	276.498815	1370.661822	9.808000	-4.920000
	276.596820	1370.646273	9.808000	-5.030000
	276.696826	1370.630724	9.826000	-5.030000
	276.796832	1370.622352	9.848000	-4.970000
	276.846835	1370.610391	9.860000	-5.000000
	276.996843	1370.630726	9.860000	-4.730000
	277.096849	1370.651061	9.840000	-4.730000
	277.196855	1370.664219	9.828000	-4.790000
	277.296861	1370.670200	9.814000	-4.850000
	277.396866	1370.654651	9.788000	-5.030000
	277.496872	1370.627143	9.820000	-5.130000
	277.596878	1370.608007	9.862000	-5.060000
	277.696883	1370.605615	9.860000	-4.920000
	277.796889	1370.605615	9.860000	-4.920000
	277.896895	1370.611595	9.868000	-4.850000
	277.996901	1370.642697	9.824000	-4.640000
	278.096906	1370.652266	9.822000	-4.820000
	278.196912	1370.651070	9.820000	-4.910000
	278.296918	1370.630738	9.818000	-5.070000
	278.396924	1370.603230	9.834000	-5.130000
	278.496929	1370.576919	9.868000	-5.120000
	278.596935	1370.587684	9.862000	-4.810000
	278.696940	1370.611607	9.850000	-4.700000
	278.796947	1370.635531	9.848000	-4.700000
	278.896952	1370.649885	9.814000	-4.780000
	278.996958	1370.646297	9.810000	-4.930000
	279.096963	1370.623572	9.820000	-5.090000
	279.196969	1370.603240	9.824000	-5.070000
	279.296975	1370.610417	9.860000	-4.840000
	279.396981	1370.610417	9.860000	-4.840000
	279.496986	1370.624771	9.858000	-4.780000
	279.596992	1370.652284	9.856000	-4.670000
	279.696998	1370.669030	9.828000	-4.760000
	279.797004	1370.678600	9.806000	-4.820000
	279.897009	1370.661855	9.812000	-5.040000
	279.997015	1370.654678	9.804000	-4.960000
	280.097021	1370.645110	9.842000	-4.980000
	280.197026	1370.641521	9.862000	-4.930000
	280.297032	1370.654679	9.852000	-4.790000
	280.397038	1370.679800	9.840000	-4.690000
	280.497044	1370.695351	9.810000	-4.770000
	280.597049	1370.685782	9.810000	-4.980000
	280.697055	1370.672625	9.812000	-5.010000
	280.797061	1370.652292	9.834000	-5.070000
	280.897067	1370.645116	9.844000	-4.960000
	280.997072	1370.645116	9.844000	-4.960000
	281.097078	1370.611628	9.842000	-5.180000
	281.197083	1370.610432	9.866000	-4.910000
	281.297090	1370.642730	9.868000	-4.630000
	281.400095	1370.664262	9.812000	-4.720000
	281.497101	1370.678616	9.824000	-4.780000
	281.597106	1370.667852	9.814000	-4.990000
	281.697112	1370.646323	9.800000	-5.080000
	281.797118	1370.630774	9.816000	-5.030000
	281.897124	1370.622402	9.842000	-4.970000
	281.997129	1370.634363	9.878000	-4.800000
	282.097135	1370.652306	9.842000	-4.750000
	282.197141	1370.677427	9.842000	-4.690000
	282.297147	1370.692978	9.810000	-4.770000
	282.397152	1370.682213	9.810000	-4.990000
	282.497158	1370.664272	9.806000	-5.050000
	282.597164	1370.664272	9.806000	-5.050000
	282.696169	1370.643939	9.852000	-5.070000
	282.799175	1370.618823	9.848000	-5.110000
	282.896181	1370.614038	9.846000	-4.940000
	282.996187	1370.634373	9.852000	-4.730000
	283.096192	1370.661887	9.840000	-4.670000
	283.196198	1370.690597	9.822000	-4.660000
	283.296204	1370.690597	9.820000	-4.900000
	283.396209	1370.682224	9.796000	-4.970000
	283.496215	1370.652324	9.818000	-5.150000
	283.596221	1370.626011	9.842000	-5.120000
	283.696227	1370.615247	9.880000	-4.990000
	283.797233	1370.631993	9.866000	-4.760000
	283.896238	1370.658310	9.842000	-4.680000
	283.996244	1370.664291	9.834000	-4.850000
	284.096250	1370.660702	9.816000	-4.930000
	284.196255	1370.660702	9.816000	-4.930000
	284.296261	1370.653526	9.808000	-4.960000
	284.396266	1370.642761	9.820000	-4.990000
	284.496273	1370.620037	9.844000	-5.090000
	284.596278	1370.611665	9.864000	-4.970000
	284.696284	1370.617645	9.876000	-4.850000
	284.796289	1370.643962	9.852000	-4.680000
	284.896295	1370.672672	9.834000	-4.660000
	284.996301	1370.687026	9.816000	-4.780000
	285.096307	1370.683438	9.798000	-4.930000
	285.196312	1370.663105	9.814000	-5.070000
	285.296318	1370.642772	9.822000	-5.070000
	285.396324	1370.623635	9.832000	-5.060000
	285.499330	1370.608087	9.846000	-5.030000
	285.596335	1370.596127	9.862000	-5.000000
	285.698341	1370.605696	9.872000	-4.820000
	285.796347	1370.605696	9.872000	-4.820000
	285.896352	1370.633208	9.856000	-4.670000
	285.996358	1370.660722	9.834000	-4.670000
	286.096364	1370.671487	9.824000	-4.810000
	286.196370	1370.679860	9.806000	-4.830000
	286.296375	1370.658331	9.816000	-5.080000
	286.396381	1370.637999	9.822000	-5.070000
	286.496387	1370.627234	9.834000	-4.990000
	286.596393	1370.616470	9.868000	-4.990000
	286.696398	1370.624843	9.880000	-4.830000
	286.796404	1370.639196	9.860000	-4.780000
	286.896410	1370.663121	9.840000	-4.700000
	286.996415	1370.673886	9.818000	-4.810000
	287.096421	1370.672690	9.806000	-4.910000
	287.196427	1370.659533	9.796000	-5.010000
	287.296432	1370.659533	9.796000	-5.010000
	287.396438	1370.645181	9.810000	-5.020000
	287.496444	1370.622456	9.840000	-5.090000
	287.596450	1370.605712	9.854000	-5.040000
	287.696455	1370.611692	9.868000	-4.850000
	287.796461	1370.638009	9.886000	-4.680000
	287.896467	1370.659541	9.852000	-4.720000
	287.996472	1370.678680	9.828000	-4.740000
	288.096478	1370.691838	9.832000	-4.790000
	288.196484	1370.683465	9.818000	-4.970000
	288.296490	1370.678681	9.808000	-4.940000
	288.396495	1370.658348	9.810000	-5.070000
	288.496501	1370.624860	9.838000	-5.180000
	288.596507	1370.617684	9.850000	-4.960000
	288.696513	1370.612900	9.870000	-4.940000
	288.797518	1370.612900	9.870000	-4.940000
	288.896524	1370.626057	9.870000	-4.790000
	288.996530	1370.646392	9.852000	-4.730000
	289.096536	1370.666728	9.828000	-4.730000
	289.196541	1370.688260	9.822000	-4.720000
	289.296547	1370.671515	9.810000	-5.040000
	289.396553	1370.661946	9.806000	-4.980000
	289.496558	1370.647593	9.812000	-5.020000
	289.596564	1370.624869	9.814000	-5.090000
	289.696570	1370.614105	9.844000	-4.990000
	289.796576	1370.608124	9.858000	-4.950000
	289.896581	1370.596164	9.852000	-5.000000
	289.996587	1370.604537	9.866000	-4.830000
	290.096593	1370.618890	9.880000	-4.780000
	290.196599	1370.649993	9.846000	-4.640000
	290.296604	1370.667935	9.848000	-4.750000
	290.396610	1370.676309	9.820000	-4.830000
	290.496615	1370.676309	9.820000	-4.830000
	290.598621	1370.677505	9.810000	-4.890000
	290.696627	1370.672720	9.784000	-4.940000
	290.796633	1370.661956	9.790000	-4.990000
	290.896638	1370.634447	9.808000	-5.130000
	290.996644	1370.618899	9.842000	-5.030000
	291.096650	1370.602154	9.874000	-5.040000
	291.196656	1370.618901	9.860000	-4.760000
	291.296661	1370.638039	9.892000	-4.740000
	291.396667	1370.655982	9.848000	-4.750000
	291.496673	1370.670336	9.820000	-4.780000
	291.596679	1370.682298	9.822000	-4.800000
	291.696684	1370.684691	9.810000	-4.880000
	291.796690	1370.677514	9.818000	-4.960000
	291.896696	1370.663161	9.818000	-5.020000
	291.996701	1370.663161	9.818000	-5.020000
	292.096707	1370.634457	9.806000	-5.140000
	292.198713	1370.620104	9.830000	-5.020000
	292.296719	1370.609340	9.838000	-4.990000
	292.396724	1370.614124	9.848000	-4.860000
	292.496730	1370.617712	9.874000	-4.870000
	292.596736	1370.634459	9.870000	-4.760000
	292.696742	1370.653598	9.860000	-4.740000
	292.796747	1370.666756	9.850000	-4.790000
	292.896753	1370.695466	9.846000	-4.660000
	292.996758	1370.713410	9.818000	-4.750000
	293.096765	1370.709821	9.810000	-4.930000
	293.196770	1370.705037	9.812000	-4.940000
	293.296776	1370.667960	9.814000	-5.210000
	293.396781	1370.645235	9.830000	-5.090000
	293.496787	1370.645235	9.830000	-5.090000
	293.596793	1370.622511	9.848000	-5.090000
	293.696799	1370.606963	9.868000	-5.030000
	293.796804	1370.611747	9.870000	-4.860000
	293.896810	1370.627297	9.878000	-4.770000
	293.996816	1370.642847	9.870000	-4.770000
	294.096821	1370.676343	9.862000	-4.620000
	294.196827	1370.695482	9.832000	-4.740000
	294.296833	1370.695482	9.816000	-4.900000
	294.396839	1370.695482	9.802000	-4.900000
	294.496844	1370.693090	9.816000	-4.920000
	294.596850	1370.670365	9.810000	-5.090000
	294.696856	1370.651228	9.820000	-5.060000
	294.796862	1370.627308	9.818000	-5.100000
	294.896867	1370.612955	9.842000	-5.020000
	294.996873	1370.615347	9.858000	-4.880000
	295.096879	1370.614151	9.872000	-4.910000
	295.196885	1370.614151	9.872000	-4.910000
	295.296890	1370.633290	9.870000	-4.740000
	295.396896	1370.662000	9.858000	-4.660000
	295.496902	1370.678747	9.858000	-4.760000
	295.596907	1370.702672	9.836000	-4.700000
	295.696913	1370.709849	9.824000	-4.840000
	295.796919	1370.723007	9.802000	-4.790000
	295.896924	1370.715831	9.816000	-4.960000
	295.996930	1370.703869	9.786000	-5.000000
	296.096936	1370.678752	9.816000	-5.110000
	296.196942	1370.652439	9.816000	-5.120000
	296.296947	1370.636891	9.824000	-5.030000
	296.396953	1370.605795	9.830000	-5.160000
	296.496959	1370.599815	9.858000	-4.950000
	296.596964	1370.598619	9.862000	-4.910000
	296.696970	1370.584267	9.878000	-5.020000
	296.796976	1370.584267	9.878000	-5.020000
	296.896982	1370.616564	9.866000	-4.630000
	296.999988	1370.647666	9.840000	-4.640000
	297.096993	1370.666806	9.792000	-4.740000
	297.196999	1370.654845	9.792000	-5.000000
	297.297005	1370.650060	9.830000	-4.940000
	297.397010	1370.626140	9.818000	-5.100000
	297.497016	1370.610592	9.830000	-5.030000
	297.597022	1370.604611	9.852000	-4.950000
	297.697027	1370.610592	9.852000	-4.850000
	297.797033	1370.634516	9.870000	-4.700000
	297.897039	1370.662029	9.844000	-4.670000
	297.997045	1370.662029	9.844000	-4.670000
	298.097050	1370.690739	9.854000	-4.660000
	298.197056	1370.706290	9.812000	-4.770000
	298.297062	1370.717056	9.814000	-4.810000
	298.397068	1370.729018	9.828000	-4.800000
	298.497073	1370.723038	9.846000	-4.950000
	298.597079	1370.712272	9.810000	-4.990000
	298.697084	1370.706292	9.800000	-4.950000
	298.797091	1370.681174	9.814000	-5.110000
	298.898096	1370.665625	9.802000	-5.030000
	298.997102	1370.646488	9.822000	-5.060000
	299.097107	1370.614197	9.828000	-5.170000
	299.197113	1370.590277	9.836000	-5.100000
	299.297119	1370.597454	9.858000	-4.840000
	299.397125	1370.610611	9.850000	-4.790000
	299.547133	1370.613003	9.868000	-4.880000
	299.647139	1370.613003	9.868000	-4.880000
	299.747145	1370.626161	9.864000	-4.790000
	299.847150	1370.651281	9.872000	-4.690000
	299.947156	1370.675206	9.850000	-4.700000
	300.047162	1370.700327	9.852000	-4.690000
	300.147168	1370.721860	9.824000	-4.720000
	300.246173	1370.739804	9.836000	-4.750000
	300.346179	1370.750570	9.842000	-4.810000
	300.446185	1370.761336	9.826000	-4.810000
	300.546190	1370.764925	9.832000	-4.870000
	300.646196	1370.779280	9.812000	-4.780000
	300.746202	1370.773299	9.812000	-4.950000
	300.846208	1370.760142	9.812000	-5.010000
	300.946213	1370.744592	9.804000	-5.030000
	301.046219	1370.742199	9.792000	-4.920000
	301.146224	1370.725454	9.800000	-5.040000
	301.246231	1370.703924	9.806000	-5.080000
	301.346236	1370.703924	9.806000	-5.080000
	301.446242	1370.687179	9.788000	-5.040000
	301.546247	1370.669237	9.806000	-5.050000
	301.646253	1370.659669	9.804000	-4.980000
	301.746259	1370.632160	9.828000	-5.130000
	301.846265	1370.611828	9.826000	-5.070000
	301.946270	1370.593888	9.842000	-5.050000
	302.046276	1370.593888	9.846000	-4.900000
	302.146282	1370.591496	9.842000	-4.920000
	302.246288	1370.592692	9.864000	-4.890000
	302.346293	1370.604653	9.866000	-4.800000
	302.446299	1370.602261	9.866000	-4.920000
	302.546305	1370.602261	9.890000	-4.900000
	302.646310	1370.607045	9.856000	-4.860000
	302.746316	1370.607045	9.858000	-4.900000
	302.846322	1370.620203	9.876000	-4.790000
	302.946328	1370.626183	9.858000	-4.850000
	303.046333	1370.626183	9.858000	-4.850000
	303.146339	1370.642930	9.880000	-4.760000
	303.246345	1370.641734	9.882000	-4.910000
	303.346351	1370.648911	9.852000	-4.840000
	303.446356	1370.666854	9.868000	-4.750000
	303.546362	1370.670442	9.862000	-4.870000
	303.646368	1370.677619	9.858000	-4.840000
	303.746374	1370.699151	9.876000	-4.720000
	303.846379	1370.699151	9.858000	-4.900000
	303.946385	1370.709917	9.848000	-4.810000
	304.046391	1370.725468	9.850000	-4.770000
	304.146396	1370.737431	9.844000	-4.800000
	304.246402	1370.756571	9.828000	-4.740000
	304.346408	1370.755375	9.824000	-4.910000
	304.446414	1370.750590	9.834000	-4.940000
	304.546419	1370.755375	9.858000	-4.860000
	304.646425	1370.762553	9.840000	-4.840000
	304.746430	1370.762553	9.840000	-4.840000
	304.846437	1370.758964	9.836000	-4.930000
	304.946442	1370.749395	9.842000	-4.980000
	305.046448	1370.741021	9.848000	-4.970000
	305.146453	1370.743414	9.826000	-4.880000
	305.246459	1370.751788	9.828000	-4.830000
	305.346465	1370.763750	9.834000	-4.800000
	305.447471	1370.772124	9.828000	-4.830000
	305.546476	1370.773320	9.816000	-4.890000
	305.646482	1370.768535	9.846000	-4.940000
	305.746488	1370.770928	9.838000	-4.880000
	305.846494	1370.778105	9.828000	-4.840000
	305.946499	1370.773320	9.818000	-4.940000
	306.046505	1370.776909	9.836000	-4.870000
	306.146511	1370.776909	9.814000	-4.900000
	306.246516	1370.776909	9.814000	-4.900000
	306.346522	1370.786479	9.816000	-4.820000
	306.446528	1370.785283	9.808000	-4.910000
	306.546534	1370.790068	9.816000	-4.860000
	306.646539	1370.791264	9.818000	-4.890000
	306.746545	1370.797246	9.828000	-4.850000
	306.846551	1370.793657	9.826000	-4.930000
	306.946557	1370.805620	9.834000	-4.800000
	307.046562	1370.810405	9.830000	-4.860000
	307.146568	1370.799639	9.836000	-4.990000
	307.247574	1370.803228	9.842000	-4.870000
	307.346580	1370.791266	9.850000	-5.000000
	307.446585	1370.787677	9.840000	-4.930000
	307.546591	1370.790070	9.854000	-4.880000
	307.646596	1370.788874	9.838000	-4.910000
	307.746602	1370.780500	9.858000	-4.970000
	307.846608	1370.776912	9.866000	-4.930000
	307.946614	1370.776912	9.866000	-4.930000
	308.046619	1370.776912	9.858000	-4.900000
	308.147625	1370.768538	9.826000	-4.970000
	308.246631	1370.767342	9.850000	-4.910000
	308.346636	1370.778108	9.838000	-4.810000
	308.446642	1370.773324	9.850000	-4.940000
	308.546648	1370.770931	9.842000	-4.920000
	308.646654	1370.766146	9.870000	-4.940000
	308.747659	1370.769735	9.864000	-4.870000
	308.846665	1370.769735	9.852000	-4.900000
	308.946671	1370.762558	9.862000	-4.960000
	309.046677	1370.752988	9.870000	-4.980000
	309.146682	1370.756577	9.858000	-4.870000
	309.246688	1370.766147	9.870000	-4.820000
	309.346694	1370.770932	9.884000	-4.860000
	309.446700	1370.770932	9.854000	-4.900000
	309.546705	1370.770932	9.854000	-4.900000
	309.646711	1370.772128	9.870000	-4.890000
	309.746716	1370.756578	9.860000	-5.030000
	309.846722	1370.742224	9.892000	-5.020000
	309.946728	1370.727871	9.886000	-5.020000
	310.046734	1370.726675	9.862000	-4.910000
	310.146739	1370.720694	9.850000	-4.950000
	310.248745	1370.715909	9.876000	-4.940000
	310.349751	1370.733853	9.862000	-4.750000
	310.446757	1370.739834	9.874000	-4.850000
	310.546762	1370.739834	9.864000	-4.900000
	310.646768	1370.747012	9.840000	-4.840000
	310.746774	1370.752993	9.826000	-4.850000
	310.846779	1370.752993	9.826000	-4.850000
	310.949785	1370.757778	9.846000	-4.860000
	311.046791	1370.750600	9.836000	-4.960000
	311.146797	1370.756582	9.860000	-4.850000
	311.246802	1370.767348	9.862000	-4.810000
	311.296805	1370.780507	9.850000	-4.790000
	311.446814	1370.774526	9.824000	-4.950000
	311.547820	1370.776918	9.844000	-4.880000
	311.646825	1370.773330	9.830000	-4.930000
	311.746831	1370.772134	9.812000	-4.910000
	311.846837	1370.764956	9.804000	-4.960000
	311.946842	1370.768545	9.818000	-4.870000
	312.046848	1370.776919	9.806000	-4.830000
	312.146854	1370.776919	9.824000	-4.900000
	312.246860	1370.775723	9.806000	-4.910000
	312.346865	1370.775723	9.806000	-4.910000
	312.446871	1370.756584	9.804000	-5.060000
	312.546877	1370.737446	9.812000	-5.060000
	312.646883	1370.733858	9.812000	-4.930000
	312.746888	1370.727877	9.824000	-4.950000
	312.846894	1370.709935	9.772000	-5.050000
	312.946899	1370.708739	9.796000	-4.910000
	313.046906	1370.695582	9.816000	-5.010000
	313.146911	1370.689601	9.798000	-4.950000
	313.246917	1370.695582	9.814000	-4.850000
	313.346922	1370.701563	9.804000	-4.850000
	313.446928	1370.714721	9.804000	-4.790000
	313.546934	1370.731469	9.822000	-4.760000
	313.646940	1370.736254	9.834000	-4.860000
	313.746945	1370.744627	9.828000	-4.830000
	313.846951	1370.744627	9.828000	-4.830000
	313.946957	1370.751805	9.816000	-4.840000
	314.046963	1370.758982	9.808000	-4.840000
	314.146968	1370.760178	9.824000	-4.890000
	314.246974	1370.770945	9.836000	-4.810000
	314.346980	1370.770945	9.820000	-4.900000
	314.446985	1370.785300	9.836000	-4.780000
	314.546991	1370.776927	9.820000	-4.970000
	314.646997	1370.780516	9.820000	-4.870000
	314.747003	1370.792478	9.842000	-4.800000
	314.847008	1370.797264	9.836000	-4.860000
	314.947014	1370.785302	9.840000	-5.000000
	315.047020	1370.787694	9.836000	-4.880000
	315.147026	1370.781713	9.824000	-4.950000
	315.247031	1370.781713	9.824000	-4.950000
	315.347037	1370.792480	9.832000	-4.810000
	315.447042	1370.788891	9.840000	-4.930000
	315.547049	1370.784106	9.862000	-4.940000
	315.647054	1370.786498	9.856000	-4.880000
	315.747060	1370.781714	9.852000	-4.940000
	315.847065	1370.780517	9.870000	-4.910000
	315.947071	1370.775733	9.874000	-4.940000
	316.047077	1370.776929	9.868000	-4.890000
	316.147083	1370.758986	9.874000	-5.050000
	316.247088	1370.760183	9.872000	-4.890000
	316.347094	1370.753006	9.880000	-4.960000
	316.447100	1370.729083	9.868000	-5.100000
	316.547105	1370.724299	9.896000	-4.940000
	316.647111	1370.730280	9.858000	-4.850000
	316.747117	1370.733868	9.856000	-4.870000
	316.847123	1370.725495	9.858000	-4.970000
	316.947128	1370.725495	9.858000	-4.970000
	317.047134	1370.733869	9.872000	-4.830000
	317.147140	1370.725496	9.876000	-4.970000
	317.247146	1370.720711	9.850000	-4.940000
	317.347151	1370.732673	9.864000	-4.800000
	317.447157	1370.743440	9.858000	-4.810000
	317.547163	1370.738655	9.858000	-4.940000
	317.646168	1370.735066	9.886000	-4.930000
	317.746174	1370.721909	9.858000	-5.010000
	317.846180	1370.703967	9.856000	-5.050000
	317.946186	1370.701575	9.876000	-4.920000
	318.046191	1370.732679	9.854000	-4.640000
	318.146197	1370.725502	9.856000	-4.960000
	318.246203	1370.700384	9.872000	-5.110000
	318.346209	1370.694404	9.860000	-4.950000
	318.446214	1370.680050	9.870000	-5.020000
	318.546220	1370.680050	9.870000	-5.020000
	318.646225	1370.686031	9.868000	-4.850000
	318.746232	1370.684835	9.882000	-4.910000
	318.846237	1370.686031	9.850000	-4.890000
	318.946243	1370.672874	9.846000	-5.010000
	319.046248	1370.668090	9.878000	-4.940000
	319.146254	1370.662109	9.872000	-4.950000
	319.246260	1370.658521	9.862000	-4.930000
	319.346266	1370.659717	9.862000	-4.890000
	319.446271	1370.668090	9.864000	-4.830000
	319.546277	1370.677660	9.874000	-4.820000
	319.646283	1370.683641	9.856000	-4.850000
	319.748289	1370.666895	9.856000	-5.040000
	319.846294	1370.658523	9.854000	-4.970000
	319.946300	1370.665700	9.884000	-4.840000
	320.046306	1370.658523	9.852000	-4.960000
	320.146311	1370.657327	9.862000	-4.910000
	320.246317	1370.657327	9.862000	-4.910000
	320.346323	1370.659719	9.842000	-4.880000
	320.446329	1370.644170	9.866000	-5.030000
	320.546334	1370.635798	9.850000	-4.970000
	320.646340	1370.644171	9.868000	-4.830000
	320.746346	1370.635798	9.860000	-4.970000
	320.846352	1370.625034	9.844000	-4.990000
	320.946357	1370.625034	9.864000	-4.900000
	321.046363	1370.619054	9.878000	-4.950000
	321.146369	1370.629819	9.872000	-4.810000
	321.248374	1370.638192	9.862000	-4.830000
	321.346380	1370.638192	9.860000	-4.900000
	321.446386	1370.639388	9.886000	-4.890000
	321.546391	1370.639388	9.886000	-4.890000
	321.646397	1370.646565	9.864000	-4.840000
	321.746403	1370.641780	9.900000	-4.940000
	321.846409	1370.644173	9.874000	-4.880000
	321.946414	1370.650153	9.870000	-4.850000
	322.046420	1370.645369	9.848000	-4.940000
	322.146426	1370.639388	9.856000	-4.950000
	322.246431	1370.648958	9.864000	-4.820000
	322.346437	1370.665704	9.876000	-4.760000
	322.446443	1370.689629	9.864000	-4.700000
	322.547449	1370.709965	9.856000	-4.730000
	322.646454	1370.701592	9.878000	-4.970000
	322.747460	1370.701592	9.874000	-4.900000
	322.846466	1370.701592	9.874000	-4.900000
	322.947472	1370.709966	9.874000	-4.830000
	323.047477	1370.707573	9.862000	-4.920000
	323.146483	1370.706377	9.864000	-4.910000
	323.248489	1370.707573	9.860000	-4.890000
	323.346494	1370.700397	9.866000	-4.960000
	323.446500	1370.705181	9.874000	-4.860000
	323.548506	1370.717144	9.864000	-4.800000
	323.646512	1370.713555	9.854000	-4.930000
	323.746517	1370.720732	9.862000	-4.840000
	323.846523	1370.724321	9.862000	-4.870000
	323.946529	1370.724321	9.878000	-4.900000
	324.046535	1370.731498	9.848000	-4.840000
	324.146540	1370.726713	9.870000	-4.940000
	324.246546	1370.727910	9.876000	-4.890000
	324.346551	1370.729106	9.878000	-4.890000
	324.446558	1370.729106	9.878000	-4.890000
	324.549563	1370.735087	9.856000	-4.850000
	324.646569	1370.744657	9.874000	-4.820000
	324.746574	1370.763797	9.856000	-4.740000
	324.846580	1370.756620	9.874000	-4.960000
	324.946586	1370.754228	9.886000	-4.920000
	325.046592	1370.755424	9.868000	-4.890000
	325.146597	1370.743462	9.880000	-5.000000
	325.246603	1370.735089	9.874000	-4.970000
	325.346609	1370.727912	9.864000	-4.960000
	325.447615	1370.743464	9.862000	-4.770000
	325.549621	1370.747052	9.878000	-4.870000
	325.646626	1370.733895	9.872000	-5.010000
	325.746632	1370.733895	9.872000	-5.010000
	325.846637	1370.743465	9.862000	-4.820000
	325.946643	1370.744661	9.860000	-4.890000
	326.046649	1370.757820	9.842000	-4.790000
	326.146655	1370.757820	9.850000	-4.900000
	326.246660	1370.769782	9.854000	-4.800000
	326.346666	1370.776960	9.824000	-4.840000
	326.446672	1370.803280	9.828000	-4.680000
	326.548677	1370.804476	9.812000	-4.890000
	326.646683	1370.799691	9.836000	-4.940000
	326.748689	1370.805672	9.822000	-4.850000
	326.846694	1370.800887	9.830000	-4.940000
	326.948700	1370.800887	9.830000	-4.940000
	327.046706	1370.812850	9.822000	-4.800000
	327.148712	1370.811654	9.798000	-4.910000
	327.246717	1370.806869	9.828000	-4.940000
	327.348723	1370.804477	9.824000	-4.920000
	327.446729	1370.816440	9.794000	-4.800000
	327.546735	1370.826010	9.824000	-4.820000
	327.646740	1370.830795	9.816000	-4.860000
	327.746746	1370.822422	9.806000	-4.970000
	327.849752	1370.817637	9.808000	-4.940000
	327.946758	1370.826011	9.808000	-4.830000
	328.046763	1370.818833	9.804000	-4.960000
	328.146769	1370.815245	9.806000	-4.930000
	328.246775	1370.814048	9.796000	-4.910000
	328.351781	1370.814048	9.796000	-4.910000
	328.446786	1370.809263	9.816000	-4.940000
	328.551792	1370.790125	9.822000	-5.060000
	328.646798	1370.786536	9.806000	-4.930000
	328.748804	1370.784143	9.804000	-4.920000
	328.846809	1370.784143	9.812000	-4.900000
	328.946815	1370.766201	9.812000	-5.050000
	329.046821	1370.751847	9.798000	-5.020000
	329.146826	1370.725533	9.814000	-5.120000
	329.246832	1370.709983	9.798000	-5.030000
	329.348838	1370.693238	9.812000	-5.040000
	329.446844	1370.669317	9.814000	-5.100000
	329.546849	1370.656160	9.830000	-5.010000
	329.646855	1370.656160	9.830000	-5.010000
	329.748861	1370.628652	9.832000	-5.130000
	329.846866	1370.622671	9.848000	-4.950000
	329.946872	1370.617887	9.842000	-4.940000
	330.046878	1370.626260	9.868000	-4.830000
	330.146883	1370.619084	9.854000	-4.960000
	330.246889	1370.653775	9.860000	-4.610000
	330.348895	1370.686074	9.854000	-4.630000
	330.496903	1370.713589	9.846000	-4.670000
	330.546906	1370.727943	9.838000	-4.780000
	330.696915	1370.729140	9.824000	-4.890000
	330.796921	1370.738710	9.832000	-4.820000
	330.896926	1370.759046	9.822000	-4.730000
	330.996932	1370.759046	9.822000	-4.730000
	331.096938	1370.762635	9.804000	-4.870000
	331.196944	1370.763831	9.818000	-4.890000
	331.296949	1370.757850	9.808000	-4.950000
	331.396955	1370.753066	9.806000	-4.940000
	331.496961	1370.751869	9.780000	-4.910000
	331.596966	1370.744692	9.802000	-4.960000
	331.696972	1370.717182	9.800000	-5.130000
	331.796978	1370.710005	9.798000	-4.960000
	331.896984	1370.688476	9.824000	-5.080000
	331.996989	1370.665751	9.828000	-5.090000
	332.096995	1370.656182	9.830000	-4.980000
	332.197001	1370.634654	9.830000	-5.080000
	332.297007	1370.631065	9.854000	-4.930000
	332.397012	1370.633458	9.864000	-4.880000
	332.497018	1370.633458	9.864000	-4.880000
	332.597023	1370.633458	9.854000	-4.900000
	332.697029	1370.649008	9.878000	-4.770000
	332.797035	1370.672932	9.846000	-4.700000
	332.897041	1370.693268	9.868000	-4.730000
	332.997046	1370.708819	9.866000	-4.770000
	333.097052	1370.726763	9.854000	-4.750000
	333.197058	1370.735136	9.852000	-4.830000
	333.297064	1370.757866	9.850000	-4.710000
	333.397069	1370.768632	9.850000	-4.810000
	333.497075	1370.782988	9.828000	-4.780000
	333.597081	1370.790165	9.840000	-4.840000
	333.697086	1370.794951	9.830000	-4.860000
	333.797092	1370.788969	9.838000	-4.950000
	333.897098	1370.788969	9.838000	-4.950000
	333.997104	1370.785381	9.806000	-4.930000
	334.097109	1370.793755	9.798000	-4.830000
	334.197115	1370.784185	9.802000	-4.980000
	334.297121	1370.769831	9.802000	-5.020000
